Temperature 1 (cold), Run #1
Time ( s )	Temperature  ( °C )
0,000	22,470
0,100	22,472
0,200	22,470
0,300	22,470
0,400	22,468
0,500	22,468
0,600	22,469
0,700	22,468
0,800	22,470
0,900	22,472
1,000	22,468
1,100	22,470
1,200	22,470
1,300	22,471
1,400	22,471
1,500	22,471
1,600	22,469
1,700	22,470
1,800	22,470
1,900	22,469
2,000	22,470
2,100	22,470
2,200	22,468
2,300	22,469
2,400	22,469
2,500	22,468
2,600	22,469
2,700	22,473
2,800	22,470
2,900	22,471
3,000	22,470
3,100	22,470
3,200	22,468
3,300	22,471
3,400	22,471
3,500	22,470
3,600	22,470
3,700	22,468
3,800	22,468
3,900	22,469
4,000	22,470
4,100	22,469
4,200	22,469
4,300	22,470
4,400	22,471
4,500	22,468
4,600	22,470
4,700	22,468
4,800	22,468
4,900	22,469
5,000	22,470
5,100	22,468
5,200	22,468
5,300	22,469
5,400	22,469
5,500	22,468
5,600	22,469
5,700	22,470
5,800	22,469
5,900	22,467
6,000	22,467
6,100	22,469
6,200	22,467
6,300	22,468
6,400	22,468
6,500	22,468
6,600	22,469
6,700	22,468
6,800	22,469
6,900	22,468
7,000	22,469
7,100	22,471
7,200	22,468
7,300	22,469
7,400	22,469
7,500	22,467
7,600	22,471
7,700	22,469
7,800	22,466
7,900	22,468
8,000	22,469
8,100	22,469
8,200	22,467
8,300	22,468
8,400	22,467
8,500	22,467
8,600	22,469
8,700	22,468
8,800	22,470
8,900	22,467
9,000	22,467
9,100	22,467
9,200	22,466
9,300	22,467
9,400	22,468
9,500	22,467
9,600	22,468
9,700	22,466
9,800	22,469
9,900	22,467
10,000	22,470
10,100	22,467
10,200	22,470
10,300	22,469
10,400	22,467
10,500	22,468
10,600	22,469
10,700	22,467
10,800	22,467
10,900	22,468
11,000	22,469
11,100	22,467
11,200	22,467
11,300	22,469
11,400	22,466
11,500	22,467
11,600	22,467
11,700	22,468
11,800	22,467
11,900	22,466
12,000	22,469
12,100	22,468
12,200	22,467
12,300	22,468
12,400	22,467
12,500	22,469
12,600	22,468
12,700	22,469
12,800	22,466
12,900	22,466
13,000	22,467
13,100	22,467
13,200	22,466
13,300	22,467
13,400	22,467
13,500	22,468
13,600	22,467
13,700	22,467
13,800	22,466
13,900	22,467
14,000	22,468
14,100	22,465
14,200	22,467
14,300	22,466
14,400	22,466
14,500	22,467
14,600	22,466
14,700	22,466
14,800	22,468
14,900	22,468
15,000	22,466
15,100	22,468
15,200	22,467
15,300	22,470
15,400	22,466
15,500	22,467
15,600	22,466
15,700	22,466
15,800	22,463
15,900	22,469
16,000	22,466
16,100	22,468
16,200	22,466
16,300	22,468
16,400	22,467
16,500	22,467
16,600	22,466
16,700	22,465
16,800	22,466
16,900	22,466
17,000	22,466
17,100	22,466
17,200	22,466
17,300	22,468
17,400	22,466
17,500	22,467
17,600	22,468
17,700	22,465
17,800	22,468
17,900	22,466
18,000	22,469
18,100	22,466
18,200	22,466
18,300	22,467
18,400	22,467
18,500	22,466
18,600	22,466
18,700	22,466
18,800	22,466
18,900	22,466
19,000	22,462
19,100	22,459
19,200	22,454
19,300	22,446
19,400	22,437
19,500	22,431
19,600	22,416
19,700	22,402
19,800	22,388
19,900	22,372
20,000	22,356
20,100	22,335
20,200	22,317
20,300	22,298
20,400	22,278
20,500	22,256
20,600	22,233
20,700	22,210
20,800	22,186
20,900	22,160
21,000	22,137
21,100	22,109
21,200	22,083
21,300	22,058
21,400	22,034
21,500	22,005
21,600	21,981
21,700	21,952
21,800	21,927
21,900	21,898
22,000	21,872
22,100	21,844
22,200	21,820
22,300	21,796
22,400	21,768
22,500	21,741
22,600	21,713
22,700	21,685
22,800	21,657
22,900	21,629
23,000	21,600
23,100	21,573
23,200	21,546
23,300	21,517
23,400	21,491
23,500	21,461
23,600	21,434
23,700	21,406
23,800	21,379
23,900	21,355
24,000	21,326
24,100	21,297
24,200	21,267
24,300	21,242
24,400	21,213
24,500	21,186
24,600	21,160
24,700	21,134
24,800	21,108
24,900	21,080
25,000	21,053
25,100	21,026
25,200	21,000
25,300	20,975
25,400	20,946
25,500	20,919
25,600	20,895
25,700	20,867
25,800	20,844
25,900	20,815
26,000	20,789
26,100	20,761
26,200	20,739
26,300	20,710
26,400	20,684
26,500	20,659
26,600	20,633
26,700	20,607
26,800	20,584
26,900	20,556
27,000	20,533
27,100	20,505
27,200	20,480
27,300	20,455
27,400	20,432
27,500	20,407
27,600	20,381
27,700	20,358
27,800	20,334
27,900	20,307
28,000	20,283
28,100	20,259
28,200	20,235
28,300	20,221
28,400	20,193
28,500	20,171
28,600	20,149
28,700	20,123
28,800	20,099
28,900	20,077
29,000	20,051
29,100	20,029
29,200	20,001
29,300	19,981
29,400	19,955
29,500	19,931
29,600	19,910
29,700	19,889
29,800	19,863
29,900	19,841
30,000	19,816
30,100	19,794
30,200	19,769
30,300	19,750
30,400	19,724
30,500	19,703
30,600	19,683
30,700	19,658
30,800	19,636
30,900	19,613
31,000	19,592
31,100	19,569
31,200	19,547
31,300	19,526
31,400	19,505
31,500	19,481
31,600	19,459
31,700	19,438
31,800	19,418
31,900	19,398
32,000	19,372
32,100	19,353
32,200	19,332
32,300	19,310
32,400	19,288
32,500	19,267
32,600	19,245
32,700	19,223
32,800	19,205
32,900	19,182
33,000	19,160
33,100	19,141
33,200	19,121
33,300	19,103
33,400	19,080
33,500	19,059
33,600	19,039
33,700	19,018
33,800	18,997
33,900	18,980
34,000	18,958
34,100	18,937
34,200	18,920
34,300	18,897
34,400	18,874
34,500	18,859
34,600	18,839
34,700	18,818
34,800	18,800
34,900	18,779
35,000	18,759
35,100	18,740
35,200	18,721
35,300	18,703
35,400	18,683
35,500	18,663
35,600	18,644
35,700	18,626
35,800	18,605
35,900	18,595
36,000	18,577
36,100	18,556
36,200	18,537
36,300	18,520
36,400	18,505
36,500	18,483
36,600	18,464
36,700	18,447
36,800	18,428
36,900	18,411
37,000	18,392
37,100	18,373
37,200	18,357
37,300	18,339
37,400	18,319
37,500	18,304
37,600	18,284
37,700	18,264
37,800	18,247
37,900	18,233
38,000	18,213
38,100	18,196
38,200	18,178
38,300	18,160
38,400	18,142
38,500	18,123
38,600	18,108
38,700	18,093
38,800	18,073
38,900	18,055
39,000	18,040
39,100	18,022
39,200	18,004
39,300	17,990
39,400	17,972
39,500	17,955
39,600	17,938
39,700	17,922
39,800	17,906
39,900	17,890
40,000	17,871
40,100	17,854
40,200	17,839
40,300	17,823
40,400	17,808
40,500	17,791
40,600	17,779
40,700	17,760
40,800	17,742
40,900	17,728
41,000	17,711
41,100	17,697
41,200	17,680
41,300	17,667
41,400	17,648
41,500	17,634
41,600	17,617
41,700	17,601
41,800	17,586
41,900	17,570
42,000	17,555
42,100	17,539
42,200	17,524
42,300	17,514
42,400	17,495
42,500	17,482
42,600	17,466
42,700	17,448
42,800	17,434
42,900	17,417
43,000	17,405
43,100	17,390
43,200	17,372
43,300	17,364
43,400	17,346
43,500	17,330
43,600	17,315
43,700	17,301
43,800	17,285
43,900	17,272
44,000	17,260
44,100	17,243
44,200	17,229
44,300	17,214
44,400	17,201
44,500	17,185
44,600	17,172
44,700	17,160
44,800	17,146
44,900	17,130
45,000	17,116
45,100	17,102
45,200	17,090
45,300	17,076
45,400	17,062
45,500	17,050
45,600	17,035
45,700	17,022
45,800	17,007
45,900	16,995
46,000	16,982
46,100	16,969
46,200	16,954
46,300	16,946
46,400	16,934
46,500	16,923
46,600	16,913
46,700	16,898
46,800	16,882
46,900	16,871
47,000	16,857
47,100	16,846
47,200	16,832
47,300	16,820
47,400	16,807
47,500	16,793
47,600	16,777
47,700	16,769
47,800	16,757
47,900	16,743
48,000	16,728
48,100	16,718
48,200	16,704
48,300	16,691
48,400	16,680
48,500	16,667
48,600	16,656
48,700	16,642
48,800	16,630
48,900	16,620
49,000	16,605
49,100	16,594
49,200	16,585
49,300	16,571
49,400	16,559
49,500	16,548
49,600	16,532
49,700	16,526
49,800	16,513
49,900	16,498
50,000	16,489
50,100	16,478
50,200	16,466
50,300	16,454
50,400	16,442
50,500	16,429
50,600	16,418
50,700	16,405
50,800	16,395
50,900	16,383
51,000	16,373
51,100	16,360
51,200	16,349
51,300	16,338
51,400	16,328
51,500	16,318
51,600	16,306
51,700	16,294
51,800	16,286
51,900	16,272
52,000	16,261
52,100	16,255
52,200	16,241
52,300	16,230
52,400	16,221
52,500	16,207
52,600	16,197
52,700	16,187
52,800	16,175
52,900	16,165
53,000	16,154
53,100	16,144
53,200	16,133
53,300	16,121
53,400	16,117
53,500	16,103
53,600	16,096
53,700	16,083
53,800	16,071
53,900	16,063
54,000	16,053
54,100	16,044
54,200	16,033
54,300	16,021
54,400	16,013
54,500	16,001
54,600	15,991
54,700	15,981
54,800	15,971
54,900	15,960
55,000	15,951
55,100	15,944
55,200	15,936
55,300	15,924
55,400	15,913
55,500	15,905
55,600	15,894
55,700	15,882
55,800	15,873
55,900	15,865
56,000	15,854
56,100	15,844
56,200	15,837
56,300	15,825
56,400	15,819
56,500	15,809
56,600	15,798
56,700	15,790
56,800	15,779
56,900	15,772
57,000	15,761
57,100	15,753
57,200	15,743
57,300	15,735
57,400	15,725
57,500	15,717
57,600	15,708
57,700	15,701
57,800	15,689
57,900	15,682
58,000	15,672
58,100	15,662
58,200	15,657
58,300	15,644
58,400	15,636
58,500	15,627
58,600	15,621
58,700	15,612
58,800	15,599
58,900	15,592
59,000	15,587
59,100	15,576
59,200	15,569
59,300	15,562
59,400	15,552
59,500	15,542
59,600	15,532
59,700	15,527
59,800	15,517
59,900	15,511
60,000	15,502
60,100	15,495
60,200	15,484
60,300	15,477
60,400	15,469
60,500	15,460
60,600	15,452
60,700	15,447
60,800	15,436
60,900	15,427
61,000	15,422
61,100	15,413
61,200	15,406
61,300	15,395
61,400	15,387
61,500	15,381
61,600	15,372
61,700	15,367
61,800	15,361
61,900	15,349
62,000	15,342
62,100	15,336
62,200	15,324
62,300	15,317
62,400	15,313
62,500	15,303
62,600	15,298
62,700	15,288
62,800	15,282
62,900	15,278
63,000	15,266
63,100	15,259
63,200	15,251
63,300	15,250
63,400	15,244
63,500	15,238
63,600	15,232
63,700	15,227
63,800	15,217
63,900	15,211
64,000	15,206
64,100	15,197
64,200	15,189
64,300	15,181
64,400	15,175
64,500	15,168
64,600	15,160
64,700	15,153
64,800	15,150
64,900	15,140
65,000	15,136
65,100	15,127
65,200	15,119
65,300	15,112
65,400	15,106
65,500	15,098
65,600	15,092
65,700	15,086
65,800	15,079
65,900	15,073
66,000	15,066
66,100	15,059
66,200	15,052
66,300	15,046
66,400	15,039
66,500	15,036
66,600	15,030
66,700	15,020
66,800	15,015
66,900	15,005
67,000	15,000
67,100	14,995
67,200	14,989
67,300	14,980
67,400	14,974
67,500	14,970
67,600	14,963
67,700	14,958
67,800	14,950
67,900	14,945
68,000	14,938
68,100	14,931
68,200	14,925
68,300	14,921
68,400	14,914
68,500	14,909
68,600	14,901
68,700	14,896
68,800	14,889
68,900	14,885
69,000	14,877
69,100	14,871
69,200	14,866
69,300	14,860
69,400	14,852
69,500	14,850
69,600	14,841
69,700	14,838
69,800	14,834
69,900	14,825
70,000	14,821
70,100	14,818
70,200	14,813
70,300	14,806
70,400	14,798
70,500	14,793
70,600	14,788
70,700	14,781
70,800	14,776
70,900	14,770
71,000	14,764
71,100	14,760
71,200	14,753
71,300	14,748
71,400	14,743
71,500	14,735
71,600	14,731
71,700	14,726
71,800	14,721
71,900	14,717
72,000	14,711
72,100	14,706
72,200	14,700
72,300	14,691
72,400	14,690
72,500	14,684
72,600	14,676
72,700	14,675
72,800	14,668
72,900	14,666
73,000	14,659
73,100	14,655
73,200	14,651
73,300	14,644
73,400	14,637
73,500	14,633
73,600	14,627
73,700	14,625
73,800	14,621
73,900	14,615
74,000	14,610
74,100	14,604
74,200	14,599
74,300	14,595
74,400	14,589
74,500	14,587
74,600	14,582
74,700	14,579
74,800	14,573
74,900	14,565
75,000	14,561
75,100	14,555
75,200	14,553
75,300	14,547
75,400	14,543
75,500	14,538
75,600	14,533
75,700	14,530
75,800	14,526
75,900	14,518
76,000	14,513
76,100	14,513
76,200	14,507
76,300	14,502
76,400	14,498
76,500	14,495
76,600	14,492
76,700	14,484
76,800	14,482
76,900	14,476
77,000	14,472
77,100	14,468
77,200	14,463
77,300	14,460
77,400	14,453
77,500	14,446
77,600	14,447
77,700	14,443
77,800	14,438
77,900	14,432
78,000	14,428
78,100	14,423
78,200	14,423
78,300	14,421
78,400	14,413
78,500	14,408
78,600	14,407
78,700	14,403
78,800	14,401
78,900	14,393
79,000	14,388
79,100	14,388
79,200	14,383
79,300	14,379
79,400	14,375
79,500	14,372
79,600	14,372
79,700	14,363
79,800	14,357
79,900	14,357
80,000	14,353
80,100	14,345
80,200	14,339
80,300	14,344
80,400	14,337
80,500	14,332
80,600	14,329
80,700	14,327
80,800	14,321
80,900	14,316
81,000	14,315
81,100	14,310
81,200	14,308
81,300	14,305
81,400	14,299
81,500	14,294
81,600	14,291
81,700	14,290
81,800	14,283
81,900	14,283
82,000	14,278
82,100	14,275
82,200	14,271
82,300	14,268
82,400	14,265
82,500	14,262
82,600	14,257
82,700	14,254
82,800	14,253
82,900	14,249
83,000	14,243
83,100	14,238
83,200	14,234
83,300	14,236
83,400	14,229
83,500	14,229
83,600	14,222
83,700	14,222
83,800	14,218
83,900	14,215
84,000	14,213
84,100	14,208
84,200	14,202
84,300	14,202
84,400	14,196
84,500	14,196
84,600	14,194
84,700	14,189
84,800	14,186
84,900	14,184
85,000	14,180
85,100	14,177
85,200	14,174
85,300	14,172
85,400	14,168
85,500	14,165
85,600	14,166
85,700	14,159
85,800	14,155
85,900	14,153
86,000	14,152
86,100	14,147
86,200	14,145
86,300	14,143
86,400	14,136
86,500	14,134
86,600	14,134
86,700	14,128
86,800	14,128
86,900	14,121
87,000	14,122
87,100	14,115
87,200	14,116
87,300	14,115
87,400	14,110
87,500	14,105
87,600	14,103
87,700	14,100
87,800	14,099
87,900	14,096
88,000	14,093
88,100	14,092
88,200	14,087
88,300	14,084
88,400	14,085
88,500	14,082
88,600	14,078
88,700	14,075
88,800	14,073
88,900	14,070
89,000	14,068
89,100	14,064
89,200	14,064
89,300	14,062
89,400	14,058
89,500	14,056
89,600	14,050
89,700	14,050
89,800	14,048
89,900	14,047
90,000	14,042
90,100	14,041
90,200	14,042
90,300	14,035
90,400	14,034
90,500	14,030
90,600	14,031
90,700	14,026
90,800	14,026
90,900	14,021
91,000	14,021
91,100	14,019
91,200	14,016
91,300	14,014
91,400	14,007
91,500	14,008
91,600	14,005
91,700	14,003
91,800	14,001
91,900	13,998
92,000	13,998
92,100	13,995
92,200	13,995
92,300	13,990
92,400	13,988
92,500	13,985
92,600	13,983
92,700	13,982
92,800	13,979
92,900	13,976
93,000	13,975
93,100	13,973
93,200	13,973
93,300	13,973
93,400	13,971
93,500	13,964
93,600	13,963
93,700	13,963
93,800	13,960
93,900	13,958
94,000	13,952
94,100	13,955
94,200	13,954
94,300	13,951
94,400	13,949
94,500	13,944
94,600	13,949
94,700	13,943
94,800	13,945
94,900	13,940
95,000	13,940
95,100	13,935
95,200	13,931
95,300	13,933
95,400	13,931
95,500	13,928
95,600	13,925
95,700	13,922
95,800	13,924
95,900	13,922
96,000	13,920
96,100	13,915
96,200	13,915
96,300	13,914
96,400	13,912
96,500	13,908
96,600	13,908
96,700	13,907
96,800	13,906
96,900	13,904
97,000	13,900
97,100	13,899
97,200	13,898
97,300	13,895
97,400	13,895
97,500	13,893
97,600	13,892
97,700	13,890
97,800	13,887
97,900	13,886
98,000	13,887
98,100	13,885
98,200	13,881
98,300	13,879
98,400	13,882
98,500	13,876
98,600	13,874
98,700	13,874
98,800	13,871
98,900	13,870
99,000	13,869
99,100	13,870
99,200	13,866
99,300	13,866
99,400	13,863
99,500	13,864
99,600	13,860
99,700	13,861
99,800	13,859
99,900	13,857
100,000	13,857
100,100	13,855
100,200	13,852
100,300	13,853
100,400	13,852
100,500	13,848
100,600	13,848
100,700	13,850
100,800	13,848
100,900	13,844
101,000	13,841
101,100	13,843
101,200	13,844
101,300	13,837
101,400	13,838
101,500	13,835
101,600	13,836
101,700	13,836
101,800	13,830
101,900	13,832
102,000	13,831
102,100	13,834
102,200	13,829
102,300	13,829
102,400	13,826
102,500	13,826
102,600	13,827
102,700	13,823
102,800	13,820
102,900	13,820
103,000	13,820
103,100	13,819
103,200	13,816
103,300	13,817
103,400	13,815
103,500	13,814
103,600	13,810
103,700	13,808
103,800	13,808
103,900	13,809
104,000	13,809
104,100	13,806
104,200	13,808
104,300	13,803
104,400	13,803
104,500	13,804
104,600	13,801
104,700	13,799
104,800	13,795
104,900	13,799
105,000	13,797
105,100	13,796
105,200	13,794
105,300	13,793
105,400	13,794
105,500	13,794
105,600	13,792
105,700	13,789
105,800	13,788
105,900	13,787
106,000	13,788
106,100	13,787
106,200	13,787
106,300	13,787
106,400	13,785
106,500	13,785
106,600	13,784
106,700	13,785
106,800	13,781
106,900	13,782
107,000	13,782
107,100	13,776
107,200	13,778
107,300	13,777
107,400	13,776
107,500	13,777
107,600	13,775
107,700	13,774
107,800	13,776
107,900	13,774
108,000	13,773
108,100	13,773
108,200	13,772
108,300	13,770
108,400	13,768
108,500	13,766
108,600	13,769
108,700	13,769
108,800	13,766
108,900	13,768
109,000	13,763
109,100	13,766
109,200	13,765
109,300	13,764
109,400	13,761
109,500	13,761
109,600	13,763
109,700	13,760
109,800	13,759
109,900	13,757
110,000	13,758
110,100	13,759
110,200	13,758
110,300	13,758
110,400	13,758
110,500	13,756
110,600	13,753
110,700	13,756
110,800	13,755
110,900	13,754
111,000	13,756
111,100	13,753
111,200	13,751
111,300	13,756
111,400	13,751
111,500	13,751
111,600	13,751
111,700	13,750
111,800	13,749
111,900	13,751
112,000	13,748
112,100	13,747
112,200	13,746
112,300	13,745
112,400	13,746
112,500	13,741
112,600	13,747
112,700	13,745
112,800	13,743
112,900	13,744
113,000	13,745
113,100	13,745
113,200	13,744
113,300	13,742
113,400	13,744
113,500	13,744
113,600	13,741
113,700	13,742
113,800	13,741
113,900	13,742
114,000	13,741
114,100	13,741
114,200	13,740
114,300	13,738
114,400	13,738
114,500	13,738
114,600	13,739
114,700	13,737
114,800	13,739
114,900	13,738
115,000	13,736
115,100	13,735
115,200	13,738
115,300	13,735
115,400	13,734
115,500	13,737
115,600	13,738
115,700	13,734
115,800	13,735
115,900	13,733
116,000	13,733
116,100	13,732
116,200	13,734
116,300	13,734
116,400	13,734
116,500	13,732
116,600	13,734
116,700	13,733
116,800	13,734
116,900	13,732
117,000	13,732
117,100	13,735
117,200	13,734
117,300	13,732
117,400	13,731
117,500	13,730
117,600	13,729
117,700	13,731
117,800	13,733
117,900	13,730
118,000	13,730
118,100	13,730
118,200	13,731
118,300	13,730
118,400	13,730
118,500	13,733
118,600	13,730
118,700	13,728
118,800	13,730
118,900	13,731
119,000	13,730
119,100	13,729
119,200	13,731
119,300	13,729
119,400	13,731
119,500	13,731
119,600	13,727
119,700	13,731
119,800	13,729
119,900	13,730
120,000	13,729
120,100	13,731
120,200	13,730
120,300	13,728
120,400	13,731
120,500	13,728
120,600	13,730
120,700	13,731
120,800	13,730
120,900	13,729
121,000	13,730
121,100	13,729
121,200	13,732
121,300	13,729
121,400	13,728
121,500	13,732
121,600	13,734
121,700	13,740
121,800	13,742
121,900	13,749
122,000	13,757
122,100	13,764
122,200	13,776
122,300	13,788
122,400	13,800
122,500	13,813
122,600	13,829
122,700	13,845
122,800	13,857
122,900	13,878
123,000	13,896
123,100	13,913
123,200	13,934
123,300	13,953
123,400	13,978
123,500	13,997
123,600	14,021
123,700	14,041
123,800	14,066
123,900	14,084
124,000	14,109
124,100	14,131
124,200	14,156
124,300	14,178
124,400	14,203
124,500	14,226
124,600	14,249
124,700	14,275
124,800	14,297
124,900	14,325
125,000	14,347
125,100	14,375
125,200	14,393
125,300	14,420
125,400	14,443
125,500	14,471
125,600	14,495
125,700	14,516
125,800	14,542
125,900	14,566
126,000	14,590
126,100	14,615
126,200	14,639
126,300	14,665
126,400	14,690
126,500	14,713
126,600	14,737
126,700	14,761
126,800	14,785
126,900	14,814
127,000	14,834
127,100	14,857
127,200	14,884
127,300	14,908
127,400	14,933
127,500	14,956
127,600	14,979
127,700	15,005
127,800	15,027
127,900	15,052
128,000	15,074
128,100	15,097
128,200	15,121
128,300	15,146
128,400	15,169
128,500	15,193
128,600	15,218
128,700	15,240
128,800	15,255
128,900	15,279
129,000	15,300
129,100	15,325
129,200	15,348
129,300	15,369
129,400	15,392
129,500	15,417
129,600	15,439
129,700	15,465
129,800	15,482
129,900	15,507
130,000	15,530
130,100	15,553
130,200	15,573
130,300	15,596
130,400	15,619
130,500	15,643
130,600	15,666
130,700	15,690
130,800	15,707
130,900	15,728
131,000	15,752
131,100	15,776
131,200	15,797
131,300	15,820
131,400	15,839
131,500	15,863
131,600	15,886
131,700	15,905
131,800	15,927
131,900	15,948
132,000	15,968
132,100	15,992
132,200	16,014
132,300	16,035
132,400	16,056
132,500	16,077
132,600	16,100
132,700	16,117
132,800	16,140
132,900	16,161
133,000	16,184
133,100	16,200
133,200	16,225
133,300	16,242
133,400	16,262
133,500	16,284
133,600	16,306
133,700	16,327
133,800	16,346
133,900	16,367
134,000	16,387
134,100	16,407
134,200	16,429
134,300	16,450
134,400	16,470
134,500	16,487
134,600	16,510
134,700	16,530
134,800	16,548
134,900	16,571
135,000	16,589
135,100	16,607
135,200	16,630
135,300	16,648
135,400	16,667
135,500	16,686
135,600	16,710
135,700	16,728
135,800	16,748
135,900	16,764
136,000	16,787
136,100	16,802
136,200	16,824
136,300	16,842
136,400	16,863
136,500	16,882
136,600	16,901
136,700	16,920
136,800	16,939
136,900	16,951
137,000	16,967
137,100	16,986
137,200	17,005
137,300	17,022
137,400	17,041
137,500	17,060
137,600	17,079
137,700	17,097
137,800	17,115
137,900	17,133
138,000	17,153
138,100	17,170
138,200	17,188
138,300	17,207
138,400	17,223
138,500	17,243
138,600	17,261
138,700	17,278
138,800	17,297
138,900	17,315
139,000	17,330
139,100	17,350
139,200	17,367
139,300	17,386
139,400	17,401
139,500	17,421
139,600	17,438
139,700	17,455
139,800	17,472
139,900	17,490
140,000	17,508
140,100	17,526
140,200	17,544
140,300	17,562
140,400	17,580
140,500	17,596
140,600	17,612
140,700	17,629
140,800	17,643
140,900	17,664
141,000	17,681
141,100	17,698
141,200	17,717
141,300	17,732
141,400	17,748
141,500	17,765
141,600	17,783
141,700	17,799
141,800	17,816
141,900	17,828
142,000	17,847
142,100	17,862
142,200	17,880
142,300	17,897
142,400	17,911
142,500	17,928
142,600	17,944
142,700	17,960
142,800	17,978
142,900	17,993
143,000	18,009
143,100	18,022
143,200	18,040
143,300	18,056
143,400	18,075
143,500	18,089
143,600	18,105
143,700	18,122
143,800	18,138
143,900	18,155
144,000	18,169
144,100	18,185
144,200	18,202
144,300	18,215
144,400	18,229
144,500	18,247
144,600	18,260
144,700	18,277
144,800	18,295
144,900	18,307
145,000	18,322
145,100	18,340
145,200	18,352
145,300	18,369
145,400	18,382
145,500	18,398
145,600	18,414
145,700	18,430
145,800	18,445
145,900	18,459
146,000	18,472
146,100	18,487
146,200	18,503
146,300	18,517
146,400	18,535
146,500	18,547
146,600	18,564
146,700	18,578
146,800	18,593
146,900	18,605
147,000	18,614
147,100	18,626
147,200	18,641
147,300	18,656
147,400	18,670
147,500	18,683
147,600	18,699
147,700	18,713
147,800	18,725
147,900	18,743
148,000	18,757
148,100	18,770
148,200	18,784
148,300	18,798
148,400	18,812
148,500	18,826
148,600	18,838
148,700	18,853
148,800	18,866
148,900	18,881
149,000	18,895
149,100	18,909
149,200	18,922
149,300	18,938
149,400	18,949
149,500	18,963
149,600	18,977
149,700	18,990
149,800	19,002
149,900	19,019
150,000	19,031
150,100	19,044
150,200	19,055
150,300	19,072
150,400	19,087
150,500	19,098
150,600	19,109
150,700	19,126
150,800	19,137
150,900	19,147
151,000	19,165
151,100	19,174
151,200	19,189
151,300	19,203
151,400	19,215
151,500	19,231
151,600	19,242
151,700	19,255
151,800	19,267
151,900	19,278
152,000	19,292
152,100	19,304
152,200	19,318
152,300	19,330
152,400	19,343
152,500	19,356
152,600	19,369
152,700	19,382
152,800	19,392
152,900	19,406
153,000	19,421
153,100	19,430
153,200	19,440
153,300	19,453
153,400	19,468
153,500	19,478
153,600	19,490
153,700	19,504
153,800	19,517
153,900	19,526
154,000	19,538
154,100	19,552
154,200	19,561
154,300	19,576
154,400	19,588
154,500	19,601
154,600	19,610
154,700	19,625
154,800	19,635
154,900	19,648
155,000	19,658
155,100	19,668
155,200	19,682
155,300	19,696
155,400	19,707
155,500	19,714
155,600	19,729
155,700	19,740
155,800	19,754
155,900	19,763
156,000	19,776
156,100	19,789
156,200	19,799
156,300	19,809
156,400	19,826
156,500	19,833
156,600	19,845
156,700	19,854
156,800	19,866
156,900	19,879
157,000	19,890
157,100	19,902
157,200	19,913
157,300	19,923
157,400	19,935
157,500	19,944
157,600	19,957
157,700	19,967
157,800	19,977
157,900	19,989
158,000	20,000
158,100	20,012
158,200	20,021
158,300	20,035
158,400	20,043
158,500	20,054
158,600	20,066
158,700	20,076
158,800	20,087
158,900	20,099
159,000	20,108
159,100	20,118
159,200	20,131
159,300	20,139
159,400	20,151
159,500	20,161
159,600	20,171
159,700	20,182
159,800	20,193
159,900	20,204
160,000	20,214
160,100	20,223
160,200	20,231
160,300	20,239
160,400	20,247
160,500	20,255
160,600	20,267
160,700	20,274
160,800	20,286
160,900	20,297
161,000	20,306
161,100	20,319
161,200	20,325
161,300	20,336
161,400	20,349
161,500	20,357
161,600	20,366
161,700	20,376
161,800	20,388
161,900	20,396
162,000	20,407
162,100	20,415
162,200	20,424
162,300	20,436
162,400	20,444
162,500	20,455
162,600	20,465
162,700	20,475
162,800	20,483
162,900	20,494
163,000	20,502
163,100	20,511
163,200	20,522
163,300	20,534
163,400	20,540
163,500	20,550
163,600	20,560
163,700	20,569
163,800	20,580
163,900	20,587
164,000	20,598
164,100	20,609
164,200	20,617
164,300	20,624
164,400	20,636
164,500	20,647
164,600	20,652
164,700	20,664
164,800	20,672
164,900	20,681
165,000	20,690
165,100	20,701
165,200	20,710
165,300	20,720
165,400	20,729
165,500	20,738
165,600	20,746
165,700	20,755
165,800	20,763
165,900	20,772
166,000	20,781
166,100	20,793
166,200	20,800
166,300	20,810
166,400	20,817
166,500	20,825
166,600	20,839
166,700	20,843
166,800	20,853
166,900	20,860
167,000	20,870
167,100	20,880
167,200	20,888
167,300	20,898
167,400	20,904
167,500	20,912
167,600	20,922
167,700	20,931
167,800	20,939
167,900	20,948
168,000	20,956
168,100	20,965
168,200	20,973
168,300	20,981
168,400	20,990
168,500	20,996
168,600	21,007
168,700	21,014
168,800	21,024
168,900	21,033
169,000	21,038
169,100	21,047
169,200	21,055
169,300	21,066
169,400	21,073
169,500	21,077
169,600	21,085
169,700	21,095
169,800	21,104
169,900	21,112
170,000	21,121
170,100	21,127
170,200	21,136
170,300	21,145
170,400	21,153
170,500	21,160
170,600	21,169
170,700	21,176
170,800	21,186
170,900	21,192
171,000	21,198
171,100	21,207
171,200	21,216
171,300	21,223
171,400	21,232
171,500	21,240
171,600	21,245
171,700	21,254
171,800	21,262
171,900	21,270
172,000	21,276
172,100	21,286
172,200	21,292
172,300	21,300
172,400	21,308
172,500	21,317
172,600	21,323
172,700	21,331
172,800	21,340
172,900	21,347
173,000	21,356
173,100	21,361
173,200	21,368
173,300	21,375
173,400	21,382
173,500	21,390
173,600	21,398
173,700	21,405
173,800	21,414
173,900	21,420
174,000	21,431
174,100	21,436
174,200	21,443
174,300	21,451
174,400	21,456
174,500	21,463
174,600	21,472
174,700	21,478
174,800	21,488
174,900	21,493
175,000	21,500
175,100	21,506
175,200	21,514
175,300	21,522
175,400	21,528
175,500	21,538
175,600	21,540
175,700	21,554
175,800	21,556
175,900	21,564
176,000	21,572
176,100	21,579
176,200	21,584
176,300	21,592
176,400	21,599
176,500	21,605
176,600	21,612
176,700	21,619
176,800	21,626
176,900	21,633
177,000	21,640
177,100	21,647
177,200	21,653
177,300	21,658
177,400	21,666
177,500	21,672
177,600	21,679
177,700	21,686
177,800	21,693
177,900	21,699
178,000	21,705
178,100	21,711
178,200	21,721
178,300	21,726
178,400	21,733
178,500	21,740
178,600	21,746
178,700	21,752
178,800	21,759
178,900	21,764
179,000	21,771
179,100	21,779
179,200	21,784
179,300	21,793
179,400	21,797
179,500	21,803
179,600	21,809
179,700	21,817
179,800	21,821
179,900	21,827
180,000	21,830
180,100	21,838
180,200	21,842
180,300	21,846
180,400	21,854
180,500	21,857
180,600	21,866
180,700	21,871
180,800	21,879
180,900	21,884
181,000	21,889
181,100	21,896
181,200	21,900
181,300	21,906
181,400	21,916
181,500	21,919
181,600	21,926
181,700	21,932
181,800	21,935
181,900	21,945
182,000	21,952
182,100	21,956
182,200	21,962
182,300	21,971
182,400	21,977
182,500	21,982
182,600	21,987
182,700	21,992
182,800	21,999
182,900	22,004
183,000	22,011
183,100	22,018
183,200	22,024
183,300	22,027
183,400	22,032
183,500	22,039
183,600	22,045
183,700	22,050
183,800	22,055
183,900	22,061
184,000	22,067
184,100	22,075
184,200	22,076
184,300	22,083
184,400	22,089
184,500	22,097
184,600	22,101
184,700	22,107
184,800	22,113
184,900	22,117
185,000	22,122
185,100	22,127
185,200	22,132
185,300	22,139
185,400	22,146
185,500	22,152
185,600	22,156
185,700	22,161
185,800	22,165
185,900	22,172
186,000	22,178
186,100	22,183
186,200	22,189
186,300	22,193
186,400	22,197
186,500	22,205
186,600	22,210
186,700	22,216
186,800	22,220
186,900	22,225
187,000	22,233
187,100	22,239
187,200	22,242
187,300	22,248
187,400	22,254
187,500	22,258
187,600	22,263
187,700	22,270
187,800	22,272
187,900	22,278
188,000	22,283
188,100	22,289
188,200	22,292
188,300	22,297
188,400	22,302
188,500	22,311
188,600	22,315
188,700	22,318
188,800	22,324
188,900	22,328
189,000	22,333
189,100	22,339
189,200	22,345
189,300	22,349
189,400	22,353
189,500	22,357
189,600	22,366
189,700	22,369
189,800	22,375
189,900	22,378
190,000	22,384
190,100	22,391
190,200	22,395
190,300	22,398
190,400	22,404
190,500	22,407
190,600	22,412
190,700	22,419
190,800	22,421
190,900	22,428
191,000	22,433
191,100	22,436
191,200	22,441
191,300	22,447
191,400	22,452
191,500	22,456
191,600	22,461
191,700	22,466
191,800	22,471
191,900	22,474
192,000	22,480
192,100	22,485
192,200	22,490
192,300	22,494
192,400	22,498
192,500	22,502
192,600	22,507
192,700	22,512
192,800	22,516
192,900	22,521
193,000	22,526
193,100	22,531
193,200	22,534
193,300	22,537
193,400	22,544
193,500	22,550
193,600	22,553
193,700	22,557
193,800	22,563
193,900	22,565
194,000	22,571
194,100	22,576
194,200	22,578
194,300	22,585
194,400	22,587
194,500	22,592
194,600	22,598
194,700	22,603
194,800	22,603
194,900	22,610
195,000	22,614
195,100	22,620
195,200	22,622
195,300	22,628
195,400	22,631
195,500	22,634
195,600	22,638
195,700	22,641
195,800	22,648
195,900	22,652
196,000	22,656
196,100	22,659
196,200	22,665
196,300	22,669
196,400	22,672
196,500	22,678
196,600	22,679
196,700	22,687
196,800	22,687
196,900	22,694
197,000	22,699
197,100	22,701
197,200	22,702
197,300	22,708
197,400	22,716
197,500	22,718
197,600	22,724
197,700	22,725
197,800	22,730
197,900	22,734
198,000	22,736
198,100	22,741
198,200	22,746
198,300	22,749
198,400	22,753
198,500	22,757
198,600	22,760
198,700	22,766
198,800	22,771
198,900	22,774
199,000	22,776
199,100	22,781
199,200	22,788
199,300	22,790
199,400	22,792
199,500	22,798
199,600	22,800
199,700	22,803
199,800	22,808
199,900	22,814
200,000	22,818
200,100	22,822
200,200	22,822
200,300	22,827
200,400	22,830
200,500	22,837
200,600	22,838
200,700	22,843
200,800	22,844
200,900	22,850
201,000	22,853
201,100	22,857
201,200	22,861
201,300	22,864
201,400	22,868
201,500	22,873
201,600	22,876
201,700	22,878
201,800	22,884
201,900	22,886
202,000	22,891
202,100	22,895
202,200	22,900
202,300	22,902
202,400	22,906
202,500	22,907
202,600	22,912
202,700	22,915
202,800	22,919
202,900	22,924
203,000	22,927
203,100	22,929
203,200	22,934
203,300	22,938
203,400	22,941
203,500	22,943
203,600	22,949
203,700	22,951
203,800	22,952
203,900	22,957
204,000	22,960
204,100	22,964
204,200	22,968
204,300	22,971
204,400	22,976
204,500	22,978
204,600	22,981
204,700	22,986
204,800	22,988
204,900	22,991
205,000	22,996
205,100	22,999
205,200	23,001
205,300	23,005
205,400	23,009
205,500	23,014
205,600	23,017
205,700	23,022
205,800	23,023
205,900	23,024
206,000	23,029
206,100	23,031
206,200	23,037
206,300	23,040
206,400	23,041
206,500	23,045
206,600	23,050
206,700	23,054
206,800	23,054
206,900	23,061
207,000	23,062
207,100	23,065
207,200	23,068
207,300	23,071
207,400	23,076
207,500	23,077
207,600	23,081
207,700	23,083
207,800	23,089
207,900	23,090
208,000	23,094
208,100	23,096
208,200	23,099
208,300	23,103
208,400	23,106
208,500	23,108
208,600	23,113
208,700	23,116
208,800	23,119
208,900	23,123
209,000	23,121
209,100	23,127
209,200	23,130
209,300	23,133
209,400	23,138
209,500	23,136
209,600	23,140
209,700	23,145
209,800	23,148
209,900	23,150
210,000	23,156
210,100	23,157
210,200	23,160
210,300	23,166
210,400	23,167
210,500	23,171
210,600	23,171
210,700	23,176
210,800	23,178
210,900	23,182
211,000	23,185
211,100	23,186
211,200	23,188
211,300	23,191
211,400	23,195
211,500	23,199
211,600	23,201
211,700	23,202
211,800	23,207
211,900	23,209
212,000	23,211
212,100	23,218
212,200	23,217
212,300	23,220
212,400	23,224
212,500	23,226
212,600	23,230
212,700	23,231
212,800	23,235
212,900	23,235
213,000	23,240
213,100	23,244
213,200	23,244
213,300	23,250
213,400	23,252
213,500	23,256
213,600	23,255
213,700	23,258
213,800	23,261
213,900	23,265
214,000	23,268
214,100	23,269
214,200	23,272
214,300	23,275
214,400	23,279
214,500	23,281
214,600	23,283
214,700	23,286
214,800	23,290
214,900	23,292
215,000	23,295
215,100	23,297
215,200	23,300
215,300	23,301
215,400	23,304
215,500	23,306
215,600	23,310
215,700	23,312
215,800	23,315
215,900	23,319
216,000	23,320
216,100	23,321
216,200	23,324
216,300	23,326
216,400	23,331
216,500	23,332
216,600	23,333
216,700	23,336
216,800	23,341
216,900	23,342
217,000	23,345
217,100	23,348
217,200	23,352
217,300	23,352
217,400	23,356
217,500	23,357
217,600	23,359
217,700	23,362
217,800	23,366
217,900	23,366
218,000	23,370
218,100	23,374
218,200	23,372
218,300	23,377
218,400	23,379
218,500	23,381
218,600	23,385
218,700	23,385
218,800	23,389
218,900	23,392
219,000	23,394
219,100	23,395
219,200	23,397
219,300	23,399
219,400	23,400
219,500	23,402
219,600	23,403
219,700	23,405
219,800	23,408
219,900	23,408
220,000	23,409
220,100	23,412
220,200	23,414
220,300	23,417
220,400	23,417
220,500	23,420
220,600	23,422
220,700	23,426
220,800	23,428
220,900	23,432
221,000	23,431
221,100	23,434
221,200	23,437
221,300	23,439
221,400	23,441
221,500	23,442
221,600	23,446
221,700	23,446
221,800	23,450
221,900	23,453
222,000	23,452
222,100	23,456
222,200	23,458
222,300	23,461
222,400	23,463
222,500	23,464
222,600	23,468
222,700	23,468
222,800	23,470
222,900	23,471
223,000	23,475
223,100	23,477
223,200	23,480
223,300	23,480
223,400	23,483
223,500	23,487
223,600	23,487
223,700	23,490
223,800	23,490
223,900	23,494
224,000	23,495
224,100	23,500
224,200	23,500
224,300	23,503
224,400	23,503
224,500	23,506
224,600	23,510
224,700	23,510
224,800	23,511
224,900	23,513
225,000	23,519
225,100	23,519
225,200	23,516
225,300	23,524
225,400	23,526
225,500	23,525
225,600	23,529
225,700	23,531
225,800	23,533
225,900	23,535
226,000	23,538
226,100	23,540
226,200	23,540
226,300	23,543
226,400	23,545
226,500	23,547
226,600	23,550
226,700	23,552
226,800	23,553
226,900	23,554
227,000	23,557
227,100	23,556
227,200	23,561
227,300	23,562
227,400	23,565
227,500	23,567
227,600	23,568
227,700	23,570
227,800	23,573
227,900	23,574
228,000	23,577
228,100	23,578
228,200	23,579
228,300	23,580
228,400	23,584
228,500	23,586
228,600	23,588
228,700	23,588
228,800	23,591
228,900	23,595
229,000	23,597
229,100	23,596
229,200	23,596
229,300	23,601
229,400	23,600
229,500	23,603
229,600	23,604
229,700	23,605
229,800	23,609
229,900	23,609
230,000	23,610
230,100	23,613
230,200	23,616
230,300	23,615
230,400	23,619
230,500	23,622
230,600	23,623
230,700	23,625
230,800	23,623
230,900	23,629
231,000	23,629
231,100	23,632
231,200	23,633
231,300	23,636
231,400	23,635
231,500	23,637
231,600	23,638
231,700	23,643
231,800	23,644
231,900	23,646
232,000	23,647
232,100	23,647
232,200	23,648
232,300	23,651
232,400	23,653
232,500	23,655
232,600	23,658
232,700	23,657
232,800	23,658
232,900	23,663
233,000	23,664
233,100	23,664
233,200	23,666
233,300	23,667
233,400	23,668
233,500	23,671
233,600	23,673
233,700	23,675
233,800	23,678
233,900	23,680
234,000	23,681
234,100	23,679
234,200	23,683
234,300	23,685
234,400	23,685
234,500	23,689
234,600	23,686
234,700	23,690
234,800	23,693
234,900	23,692
235,000	23,696
235,100	23,697
235,200	23,700
235,300	23,701
235,400	23,701
235,500	23,704
235,600	23,705
235,700	23,705
235,800	23,708
235,900	23,709
236,000	23,712
236,100	23,712
236,200	23,714
236,300	23,717
236,400	23,719
236,500	23,718
236,600	23,721
236,700	23,721
236,800	23,723
236,900	23,725
237,000	23,727
237,100	23,729
237,200	23,727
237,300	23,732
237,400	23,733
237,500	23,730
237,600	23,733
237,700	23,737
237,800	23,736
237,900	23,739
238,000	23,741
238,100	23,743
238,200	23,745
238,300	23,745
238,400	23,746
238,500	23,749
238,600	23,749
238,700	23,752
238,800	23,755
238,900	23,753
239,000	23,757
239,100	23,757
239,200	23,757
239,300	23,759
239,400	23,760
239,500	23,764
239,600	23,763
239,700	23,765
239,800	23,768
239,900	23,767
240,000	23,768
240,100	23,768
240,200	23,771
240,300	23,772
240,400	23,775
240,500	23,776
240,600	23,777
240,700	23,779
240,800	23,781
240,900	23,781
241,000	23,783
241,100	23,786
241,200	23,788
241,300	23,787
241,400	23,789
241,500	23,790
241,600	23,791
241,700	23,795
241,800	23,795
241,900	23,796
242,000	23,795
242,100	23,799
242,200	23,799
242,300	23,800
242,400	23,803
242,500	23,803
242,600	23,806
242,700	23,806
242,800	23,807
242,900	23,807
243,000	23,808
243,100	23,809
243,200	23,812
243,300	23,814
243,400	23,812
243,500	23,816
243,600	23,815
243,700	23,819
243,800	23,820
243,900	23,821
244,000	23,821
244,100	23,822
244,200	23,823
244,300	23,823
244,400	23,826
244,500	23,828
244,600	23,827
244,700	23,829
244,800	23,830
244,900	23,831
245,000	23,833
245,100	23,837
245,200	23,836
245,300	23,837
245,400	23,841
245,500	23,840
245,600	23,839
245,700	23,844
245,800	23,843
245,900	23,845
246,000	23,845
246,100	23,847
246,200	23,847
246,300	23,850
246,400	23,849
246,500	23,852
246,600	23,850
246,700	23,853
246,800	23,854
246,900	23,856
247,000	23,857
247,100	23,858
247,200	23,860
247,300	23,861
247,400	23,862
247,500	23,861
247,600	23,864
247,700	23,866
247,800	23,866
247,900	23,866
248,000	23,870
248,100	23,870
248,200	23,871
248,300	23,871
248,400	23,875
248,500	23,874
248,600	23,876
248,700	23,878
248,800	23,877
248,900	23,878
249,000	23,879
249,100	23,880
249,200	23,880
249,300	23,879
249,400	23,883
249,500	23,885
249,600	23,885
249,700	23,887
249,800	23,886
249,900	23,887
250,000	23,889
250,100	23,890
250,200	23,892
250,300	23,892
250,400	23,897
250,500	23,895
250,600	23,897
250,700	23,896
250,800	23,897
250,900	23,899
251,000	23,902
251,100	23,900
251,200	23,901
251,300	23,903
251,400	23,903
251,500	23,906
251,600	23,905
251,700	23,907
251,800	23,908
251,900	23,909
252,000	23,908
252,100	23,911
252,200	23,911
252,300	23,914
252,400	23,916
252,500	23,916
252,600	23,914
252,700	23,917
252,800	23,917
252,900	23,919
253,000	23,919
253,100	23,920
253,200	23,923
253,300	23,923
253,400	23,924
253,500	23,923
253,600	23,928
253,700	23,925
253,800	23,929
253,900	23,928
254,000	23,930
254,100	23,930
254,200	23,931
254,300	23,933
254,400	23,932
254,500	23,936
254,600	23,935
254,700	23,935
254,800	23,938
254,900	23,940
255,000	23,939
255,100	23,942
255,200	23,939
255,300	23,942
255,400	23,942
255,500	23,945
255,600	23,944
255,700	23,945
255,800	23,945
255,900	23,949
256,000	23,945
256,100	23,951
256,200	23,952
256,300	23,951
256,400	23,949
256,500	23,952
256,600	23,952
256,700	23,955
256,800	23,953
256,900	23,955
257,000	23,957
257,100	23,958
257,200	23,959
257,300	23,960
257,400	23,960
257,500	23,961
257,600	23,963
257,700	23,965
257,800	23,964
257,900	23,965
258,000	23,966
258,100	23,965
258,200	23,965
258,300	23,966
258,400	23,968
258,500	23,968
258,600	23,970
258,700	23,970
258,800	23,973
258,900	23,974
259,000	23,974
259,100	23,971
259,200	23,975
259,300	23,976
259,400	23,977
259,500	23,980
259,600	23,980
259,700	23,980
259,800	23,980
259,900	23,981
260,000	23,983
260,100	23,983
260,200	23,984
260,300	23,986
260,400	23,986
260,500	23,986
260,600	23,988
260,700	23,989
260,800	23,989
260,900	23,990
261,000	23,990
261,100	23,991
261,200	23,993
261,300	23,992
261,400	23,991
261,500	23,995
261,600	23,996
261,700	23,997
261,800	23,995
261,900	23,995
262,000	23,997
262,100	23,996
262,200	24,000
262,300	24,001
262,400	24,000
262,500	24,000
262,600	24,001
262,700	24,003
262,800	24,003
262,900	24,005
263,000	24,005
263,100	24,006
263,200	24,005
263,300	24,010
263,400	24,008
263,500	24,006
263,600	24,008
263,700	24,010
263,800	24,008
263,900	24,011
264,000	24,014
264,100	24,013
264,200	24,012
264,300	24,014
264,400	24,015
264,500	24,016
264,600	24,013
264,700	24,017
264,800	24,016
264,900	24,018
265,000	24,017
265,100	24,016
265,200	24,019
265,300	24,021
265,400	24,021
265,500	24,021
265,600	24,021
265,700	24,023
265,800	24,024
265,900	24,026
266,000	24,025
266,100	24,025
266,200	24,027
266,300	24,024
266,400	24,026
266,500	24,029
266,600	24,029
266,700	24,031
266,800	24,030
266,900	24,029
267,000	24,031
267,100	24,032
267,200	24,033
267,300	24,034
267,400	24,035
267,500	24,035
267,600	24,035
267,700	24,036
267,800	24,036
267,900	24,037
268,000	24,038
268,100	24,038
268,200	24,040
268,300	24,040
268,400	24,040
268,500	24,043
268,600	24,042
268,700	24,043
268,800	24,044
268,900	24,046
269,000	24,043
269,100	24,045
269,200	24,047
269,300	24,048
269,400	24,047
269,500	24,047
269,600	24,049
269,700	24,049
269,800	24,049
269,900	24,050
270,000	24,049
270,100	24,052
270,200	24,051
270,300	24,051
270,400	24,055
270,500	24,054
270,600	24,054
270,700	24,055
270,800	24,054
270,900	24,054
271,000	24,056
271,100	24,058
271,200	24,056
271,300	24,058
271,400	24,058
271,500	24,060
271,600	24,059
271,700	24,060
271,800	24,061
271,900	24,060
272,000	24,063
272,100	24,060
272,200	24,061
272,300	24,062
272,400	24,066
272,500	24,062
272,600	24,064
272,700	24,063
272,800	24,066
272,900	24,065
273,000	24,068
273,100	24,068
273,200	24,068
273,300	24,069
273,400	24,069
273,500	24,070
273,600	24,072
273,700	24,071
273,800	24,071
273,900	24,071
274,000	24,072
274,100	24,072
274,200	24,075
274,300	24,074
274,400	24,074
274,500	24,075
274,600	24,075
274,700	24,075
274,800	24,076
274,900	24,075
275,000	24,078
275,100	24,078
275,200	24,077
275,300	24,079
275,400	24,080
275,500	24,080
275,600	24,082
275,700	24,080
275,800	24,081
275,900	24,084
276,000	24,081
276,100	24,083
276,200	24,083
276,300	24,084
276,400	24,084
276,500	24,084
276,600	24,086
276,700	24,087
276,800	24,086
276,900	24,086
277,000	24,089
277,100	24,088
277,200	24,087
277,300	24,088
277,400	24,087
277,500	24,088
277,600	24,090
277,700	24,091
277,800	24,091
277,900	24,091
278,000	24,092
278,100	24,093
278,200	24,092
278,300	24,094
278,400	24,094
278,500	24,094
278,600	24,095
278,700	24,096
278,800	24,095
278,900	24,097
279,000	24,096
279,100	24,099
279,200	24,097
279,300	24,099
279,400	24,099
279,500	24,098
279,600	24,098
279,700	24,098
279,800	24,100
279,900	24,101
280,000	24,098
280,100	24,099
280,200	24,099
280,300	24,103
280,400	24,104
280,500	24,102
280,600	24,103
280,700	24,101
280,800	24,101
280,900	24,105
281,000	24,105
281,100	24,104
281,200	24,105
281,300	24,106
281,400	24,107
281,500	24,106
281,600	24,108
281,700	24,110
281,800	24,109
281,900	24,107
282,000	24,108
282,100	24,110
282,200	24,110
282,300	24,112
282,400	24,110
282,500	24,111
282,600	24,112
282,700	24,112
282,800	24,113
282,900	24,113
283,000	24,111
283,100	24,112
283,200	24,113
283,300	24,113
283,400	24,114
283,500	24,114
283,600	24,116
283,700	24,115
283,800	24,116
283,900	24,115
284,000	24,119
284,100	24,115
284,200	24,117
284,300	24,118
284,400	24,118
284,500	24,119
284,600	24,117
284,700	24,121
284,800	24,118
284,900	24,121
285,000	24,119
285,100	24,121
285,200	24,120
285,300	24,124
285,400	24,122
285,500	24,120
285,600	24,123
285,700	24,122
285,800	24,125
285,900	24,125
286,000	24,122
286,100	24,124
286,200	24,125
286,300	24,124
286,400	24,127
286,500	24,126
286,600	24,127
286,700	24,126
286,800	24,127
286,900	24,127
287,000	24,129
287,100	24,128
287,200	24,129
287,300	24,130
287,400	24,129
287,500	24,129
287,600	24,131
287,700	24,129
287,800	24,130
287,900	24,130
288,000	24,131
288,100	24,132
288,200	24,130
288,300	24,131
288,400	24,134
288,500	24,132
288,600	24,130
288,700	24,132
288,800	24,133
288,900	24,135
289,000	24,135
289,100	24,136
289,200	24,133
289,300	24,134
289,400	24,134
289,500	24,135
289,600	24,136
289,700	24,134
289,800	24,136
289,900	24,134
290,000	24,135
290,100	24,136
290,200	24,137
290,300	24,136
290,400	24,138
290,500	24,136
290,600	24,140
290,700	24,139
290,800	24,139
290,900	24,137
291,000	24,139
291,100	24,141
291,200	24,140
291,300	24,141
291,400	24,140
291,500	24,140
291,600	24,140
291,700	24,142
291,800	24,142
291,900	24,142
292,000	24,143
292,100	24,144
292,200	24,144
292,300	24,142
292,400	24,145
292,500	24,145
292,600	24,144
292,700	24,147
292,800	24,146
292,900	24,144
293,000	24,146
293,100	24,145
293,200	24,146
293,300	24,146
293,400	24,146
293,500	24,148
293,600	24,148
293,700	24,146
293,800	24,147
293,900	24,149
294,000	24,147
294,100	24,149
294,200	24,150
294,300	24,148
294,400	24,151
294,500	24,149
294,600	24,149
294,700	24,148
294,800	24,150
294,900	24,149
295,000	24,149
295,100	24,149
295,200	24,151
295,300	24,151
295,400	24,151
295,500	24,153
295,600	24,151
295,700	24,151
295,800	24,152
295,900	24,151
296,000	24,152
296,100	24,151
296,200	24,154
296,300	24,154
296,400	24,153
296,500	24,156
296,600	24,153
296,700	24,157
296,800	24,155
296,900	24,154
297,000	24,155
297,100	24,156
297,200	24,158
297,300	24,156
297,400	24,156
297,500	24,156
297,600	24,156
297,700	24,159
297,800	24,156
297,900	24,157
298,000	24,158
298,100	24,158
298,200	24,160
298,300	24,159
298,400	24,159
298,500	24,157
298,600	24,159
298,700	24,160
298,800	24,158
298,900	24,158
299,000	24,158
299,100	24,161
299,200	24,159
299,300	24,160
299,400	24,161
299,500	24,163
299,600	24,161
299,700	24,162
299,800	24,159
299,900	24,162
300,000	24,164
300,100	24,161
300,200	24,163
300,300	24,164
300,400	24,162
300,500	24,166
300,600	24,162
300,700	24,163
300,800	24,164
300,900	24,164
301,000	24,163
301,100	24,164
301,200	24,167
301,300	24,165
301,400	24,165
301,500	24,163
301,600	24,166
301,700	24,166
301,800	24,165
301,900	24,167
302,000	24,166
302,100	24,164
302,200	24,164
302,300	24,166
302,400	24,165
302,500	24,166
302,600	24,169
302,700	24,167
302,800	24,167
302,900	24,166
303,000	24,168
303,100	24,167
303,200	24,169
303,300	24,168
303,400	24,167
303,500	24,169
303,600	24,169
303,700	24,168
303,800	24,169
303,900	24,168
304,000	24,170
304,100	24,170
304,200	24,168
304,300	24,168
304,400	24,170
304,500	24,169
304,600	24,169
304,700	24,170
304,800	24,171
304,900	24,170
305,000	24,171
305,100	24,174
305,200	24,171
305,300	24,170
305,400	24,171
305,500	24,173
305,600	24,172
305,700	24,171
305,800	24,173
305,900	24,174
306,000	24,174
306,100	24,172
306,200	24,173
306,300	24,173
306,400	24,175
306,500	24,176
306,600	24,177
306,700	24,173
306,800	24,173
306,900	24,174
307,000	24,172
307,100	24,173
307,200	24,175
307,300	24,174
307,400	24,175
307,500	24,177
307,600	24,176
307,700	24,175
307,800	24,177
307,900	24,177
308,000	24,176
308,100	24,178
308,200	24,174
308,300	24,175
308,400	24,178
308,500	24,176
308,600	24,174
308,700	24,177
308,800	24,176
308,900	24,176
309,000	24,177
309,100	24,177
309,200	24,179
309,300	24,178
309,400	24,179
309,500	24,180
309,600	24,178
309,700	24,178
309,800	24,177
309,900	24,179
310,000	24,176
310,100	24,180
310,200	24,181
310,300	24,178
310,400	24,179
310,500	24,179
310,600	24,180
310,700	24,180
310,800	24,181
310,900	24,180
311,000	24,181
311,100	24,181
311,200	24,181
311,300	24,178
311,400	24,181
311,500	24,180
311,600	24,181
311,700	24,181
311,800	24,179
311,900	24,180
312,000	24,183
312,100	24,183
312,200	24,182
312,300	24,182
312,400	24,180
312,500	24,182
312,600	24,184
312,700	24,181
312,800	24,181
312,900	24,183
313,000	24,183
313,100	24,183
313,200	24,182
313,300	24,181
313,400	24,184
313,500	24,183
313,600	24,182
313,700	24,183
313,800	24,184
313,900	24,183
314,000	24,184
314,100	24,183
314,200	24,181
314,300	24,182
314,400	24,185
314,500	24,183
314,600	24,183
314,700	24,184
314,800	24,185
314,900	24,183
315,000	24,185
315,100	24,184
315,200	24,184
315,300	24,183
315,400	24,185
315,500	24,185
315,600	24,186
315,700	24,184
315,800	24,183
315,900	24,185
316,000	24,184
316,100	24,186
316,200	24,185
316,300	24,183
316,400	24,186
316,500	24,185
316,600	24,185
316,700	24,185
316,800	24,184
316,900	24,185
317,000	24,185
317,100	24,183
317,200	24,184
317,300	24,186
317,400	24,185
317,500	24,185
317,600	24,184
317,700	24,185
317,800	24,186
317,900	24,185
318,000	24,185
318,100	24,186
318,200	24,186
318,300	24,185
318,400	24,185
318,500	24,185
318,600	24,186
318,700	24,186
318,800	24,186
318,900	24,186
319,000	24,185
319,100	24,186
319,200	24,186
319,300	24,185
319,400	24,185
319,500	24,186
319,600	24,185
319,700	24,186
319,800	24,187
319,900	24,186
320,000	24,185
320,100	24,188
320,200	24,188
320,300	24,187
320,400	24,187
320,500	24,188
320,600	24,188
320,700	24,185
320,800	24,187
320,900	24,187
321,000	24,188
321,100	24,187
321,200	24,185
321,300	24,186
321,400	24,187
321,500	24,187
321,600	24,187
321,700	24,187
321,800	24,188
321,900	24,187
322,000	24,188
322,100	24,188
322,200	24,188
322,300	24,188
322,400	24,189
322,500	24,188
322,600	24,188
322,700	24,187
322,800	24,188
322,900	24,187
323,000	24,188
323,100	24,189
323,200	24,188
323,300	24,188
323,400	24,187
323,500	24,190
323,600	24,188
323,700	24,188
323,800	24,188
323,900	24,190
324,000	24,189
324,100	24,189
324,200	24,189
324,300	24,189
324,400	24,191
324,500	24,187
324,600	24,188
324,700	24,188
324,800	24,189
324,900	24,188
325,000	24,190
325,100	24,189
325,200	24,188
325,300	24,187
325,400	24,190
325,500	24,188
325,600	24,187
325,700	24,188
325,800	24,188
325,900	24,189
326,000	24,188
326,100	24,188
326,200	24,188
326,300	24,188
326,400	24,189
326,500	24,188
326,600	24,191
326,700	24,188
326,800	24,189
326,900	24,189
327,000	24,188
327,100	24,189
327,200	24,190
327,300	24,187
327,400	24,189
327,500	24,189
327,600	24,189
327,700	24,188
327,800	24,187
327,900	24,189
328,000	24,189
328,100	24,190
328,200	24,188
328,300	24,187
328,400	24,192
328,500	24,189
328,600	24,187
328,700	24,188
328,800	24,190
328,900	24,189
329,000	24,190
329,100	24,188
329,200	24,188
329,300	24,186
329,400	24,190
329,500	24,190
329,600	24,190
329,700	24,189
329,800	24,189
329,900	24,189
330,000	24,188
330,100	24,190
330,200	24,189
330,300	24,189
330,400	24,190
330,500	24,190
330,600	24,191
330,700	24,189
330,800	24,190
330,900	24,189
331,000	24,189
331,100	24,190
331,200	24,190
331,300	24,187
331,400	24,187
331,500	24,189
331,600	24,189
331,700	24,191
331,800	24,191
331,900	24,189
332,000	24,189
332,100	24,191
332,200	24,190
332,300	24,190
332,400	24,190
332,500	24,188
332,600	24,190
332,700	24,189
332,800	24,189
332,900	24,189
333,000	24,190
333,100	24,188
333,200	24,189
333,300	24,190
333,400	24,190
333,500	24,188
333,600	24,189
333,700	24,189
333,800	24,187
333,900	24,188
334,000	24,187
334,100	24,189
334,200	24,188
334,300	24,188
334,400	24,189
334,500	24,189
334,600	24,191
334,700	24,188
334,800	24,190
334,900	24,188
335,000	24,190
335,100	24,190
335,200	24,188
335,300	24,188
335,400	24,188
335,500	24,188
335,600	24,188
335,700	24,191
335,800	24,191
335,900	24,188
336,000	24,190
336,100	24,189
336,200	24,188
336,300	24,188
336,400	24,187
336,500	24,189
336,600	24,188
336,700	24,191
336,800	24,189
336,900	24,188
337,000	24,189
337,100	24,187
337,200	24,188
337,300	24,188
337,400	24,188
337,500	24,190
337,600	24,189
337,700	24,188
337,800	24,190
337,900	24,191
338,000	24,186
338,100	24,190
338,200	24,189
338,300	24,188
338,400	24,189
338,500	24,189
338,600	24,189
338,700	24,189
338,800	24,187
338,900	24,189
339,000	24,189
339,100	24,187
339,200	24,190
339,300	24,189
339,400	24,190
339,500	24,187
339,600	24,187
339,700	24,189
339,800	24,189
339,900	24,188
340,000	24,190
340,100	24,187
340,200	24,190
340,300	24,190
340,400	24,189
340,500	24,188
340,600	24,189
340,700	24,188
340,800	24,186
340,900	24,188
341,000	24,189
341,100	24,189
341,200	24,187
341,300	24,188
341,400	24,188
341,500	24,189
341,600	24,187
341,700	24,185
341,800	24,188
341,900	24,186
342,000	24,187
342,100	24,187
342,200	24,190
342,300	24,187
342,400	24,187
342,500	24,186
342,600	24,186
342,700	24,188
342,800	24,188
342,900	24,187
343,000	24,189
343,100	24,189
343,200	24,188
343,300	24,188
343,400	24,187
343,500	24,188
343,600	24,188
343,700	24,186
343,800	24,188
343,900	24,188
344,000	24,186
344,100	24,185
344,200	24,187
344,300	24,187
344,400	24,186
344,500	24,186
344,600	24,186
344,700	24,186
344,800	24,187
344,900	24,188
345,000	24,186
345,100	24,186
345,200	24,186
345,300	24,187
345,400	24,187
345,500	24,189
345,600	24,188
345,700	24,188
345,800	24,186
345,900	24,186
346,000	24,188
346,100	24,186
346,200	24,185
346,300	24,187
346,400	24,186
346,500	24,187
346,600	24,186
346,700	24,186
346,800	24,186
346,900	24,185
347,000	24,185
347,100	24,187
347,200	24,186
347,300	24,185
347,400	24,186
347,500	24,186
347,600	24,184
347,700	24,186
347,800	24,184
347,900	24,186
348,000	24,185
348,100	24,186
348,200	24,185
348,300	24,184
348,400	24,185
348,500	24,185
348,600	24,186
348,700	24,186
348,800	24,186
348,900	24,186
349,000	24,185
349,100	24,186
349,200	24,185
349,300	24,183
349,400	24,185
349,500	24,185
349,600	24,184
349,700	24,185
349,800	24,186
349,900	24,186
350,000	24,185
350,100	24,185
350,200	24,185
350,300	24,184
350,400	24,184
350,500	24,185
350,600	24,184
350,700	24,184
350,800	24,184
350,900	24,185
351,000	24,185
351,100	24,184
351,200	24,183
351,300	24,185
351,400	24,186
351,500	24,184
351,600	24,184
351,700	24,185
351,800	24,184
351,900	24,185
352,000	24,184
352,100	24,183
352,200	24,183
352,300	24,183
352,400	24,185
352,500	24,184
352,600	24,184
352,700	24,182
352,800	24,185
352,900	24,181
353,000	24,184
353,100	24,184
353,200	24,182
353,300	24,184
353,400	24,184
353,500	24,183
353,600	24,184
353,700	24,185
353,800	24,183
353,900	24,182
354,000	24,183
354,100	24,181
354,200	24,182
354,300	24,182
354,400	24,182
354,500	24,184
354,600	24,181
354,700	24,183
354,800	24,183
354,900	24,183
355,000	24,183
355,100	24,182
355,200	24,183
355,300	24,183
355,400	24,183
355,500	24,183
355,600	24,184
355,700	24,182
355,800	24,182
355,900	24,181
356,000	24,182
356,100	24,183
356,200	24,183
356,300	24,185
356,400	24,184
356,500	24,183
356,600	24,184
356,700	24,181
356,800	24,182
356,900	24,181
357,000	24,183
357,100	24,181
357,200	24,180
357,300	24,181
357,400	24,183
357,500	24,180
357,600	24,183
357,700	24,181
357,800	24,180
357,900	24,183
358,000	24,181
358,100	24,180
358,200	24,180
358,300	24,182
358,400	24,181
358,500	24,178
358,600	24,180
358,700	24,181
358,800	24,178
358,900	24,179
359,000	24,180
359,100	24,180
359,200	24,180
359,300	24,179
359,400	24,179
359,500	24,179
359,600	24,183
359,700	24,179
359,800	24,178
359,900	24,180
360,000	24,178
360,100	24,181
360,200	24,180
360,300	24,176
360,400	24,176
360,500	24,178
360,600	24,179
360,700	24,180
360,800	24,180
360,900	24,175
361,000	24,177
361,100	24,176
361,200	24,178
361,300	24,178
361,400	24,176
361,500	24,179
361,600	24,176
361,700	24,178
361,800	24,177
361,900	24,176
362,000	24,177
362,100	24,176
362,200	24,175
362,300	24,178
362,400	24,176
362,500	24,176
362,600	24,176
362,700	24,177
362,800	24,175
362,900	24,178
363,000	24,174
363,100	24,179
363,200	24,175
363,300	24,174
363,400	24,174
363,500	24,175
363,600	24,174
363,700	24,174
363,800	24,175
363,900	24,174
364,000	24,174
364,100	24,175
364,200	24,173
364,300	24,176
364,400	24,173
364,500	24,172
364,600	24,173
364,700	24,171
364,800	24,173
364,900	24,174
365,000	24,175
365,100	24,172
365,200	24,173
365,300	24,173
365,400	24,174
365,500	24,173
365,600	24,172
365,700	24,176
365,800	24,173
365,900	24,172
366,000	24,170
366,100	24,173
366,200	24,173
366,300	24,171
366,400	24,171
366,500	24,170
366,600	24,173
366,700	24,172
366,800	24,172
366,900	24,172
367,000	24,171
367,100	24,171
367,200	24,171
367,300	24,171
367,400	24,172
367,500	24,170
367,600	24,170
367,700	24,171
367,800	24,173
367,900	24,171
368,000	24,170
368,100	24,169
368,200	24,171
368,300	24,169
368,400	24,170
368,500	24,170
368,600	24,168
368,700	24,169
368,800	24,169
368,900	24,171
369,000	24,169
369,100	24,168
369,200	24,169
369,300	24,169
369,400	24,168
369,500	24,170
369,600	24,167
369,700	24,169
369,800	24,169
369,900	24,166
370,000	24,168
370,100	24,169
370,200	24,166
370,300	24,169
370,400	24,167
370,500	24,166
370,600	24,168
370,700	24,168
370,800	24,171
370,900	24,168
371,000	24,165
371,100	24,166
371,200	24,166
371,300	24,167
371,400	24,163
371,500	24,164
371,600	24,168
371,700	24,167
371,800	24,165
371,900	24,167
372,000	24,165
372,100	24,166
372,200	24,165
372,300	24,164
372,400	24,166
372,500	24,165
372,600	24,166
372,700	24,162
372,800	24,165
372,900	24,162
373,000	24,166
373,100	24,162
373,200	24,163
373,300	24,164
373,400	24,164
373,500	24,167
373,600	24,163
373,700	24,165
373,800	24,163
373,900	24,162
374,000	24,163
374,100	24,163
374,200	24,160
374,300	24,161
374,400	24,163
374,500	24,163
374,600	24,161
374,700	24,163
374,800	24,163
374,900	24,161
375,000	24,165
375,100	24,160
375,200	24,161
375,300	24,161
375,400	24,163
375,500	24,162
375,600	24,158
375,700	24,161
375,800	24,160
375,900	24,161
376,000	24,160
376,100	24,160
376,200	24,159
376,300	24,159
376,400	24,160
376,500	24,160
376,600	24,159
376,700	24,160
376,800	24,160
376,900	24,157
377,000	24,158
377,100	24,159
377,200	24,159
377,300	24,157
377,400	24,160
377,500	24,159
377,600	24,157
377,700	24,158
377,800	24,159
377,900	24,161
378,000	24,157
378,100	24,158
378,200	24,158
378,300	24,159
378,400	24,159
378,500	24,159
378,600	24,155
378,700	24,159
378,800	24,156
378,900	24,158
379,000	24,158
379,100	24,159
379,200	24,158
379,300	24,156
379,400	24,157
379,500	24,158
379,600	24,157
379,700	24,155
379,800	24,158
379,900	24,155
380,000	24,157
380,100	24,156
380,200	24,156
380,300	24,156
380,400	24,154
380,500	24,155
380,600	24,155
380,700	24,154
380,800	24,154
380,900	24,154
381,000	24,153
381,100	24,153
381,200	24,156
381,300	24,153
381,400	24,155
381,500	24,153
381,600	24,154
381,700	24,154
381,800	24,154
381,900	24,154
382,000	24,153
382,100	24,154
382,200	24,152
382,300	24,152
382,400	24,154
382,500	24,154
382,600	24,152
382,700	24,152
382,800	24,152
382,900	24,152
383,000	24,152
383,100	24,153
383,200	24,152
383,300	24,152
383,400	24,151
383,500	24,152
383,600	24,152
383,700	24,154
383,800	24,151
383,900	24,151
384,000	24,153
384,100	24,151
384,200	24,152
384,300	24,151
384,400	24,152
384,500	24,151
384,600	24,151
384,700	24,150
384,800	24,150
384,900	24,152
385,000	24,150
385,100	24,151
385,200	24,149
385,300	24,151
385,400	24,148
385,500	24,149
385,600	24,150
385,700	24,148
385,800	24,149
385,900	24,149
386,000	24,149
386,100	24,150
386,200	24,147
386,300	24,149
386,400	24,147
386,500	24,150
386,600	24,148
386,700	24,147
386,800	24,147
386,900	24,148
387,000	24,148
387,100	24,147
387,200	24,150
387,300	24,149
387,400	24,148
387,500	24,147
387,600	24,148
387,700	24,149
387,800	24,146
387,900	24,146
388,000	24,148
388,100	24,147
388,200	24,146
388,300	24,145
388,400	24,146
388,500	24,146
388,600	24,147
388,700	24,146
388,800	24,145
388,900	24,147
389,000	24,146
389,100	24,146
389,200	24,145
389,300	24,147
389,400	24,147
389,500	24,147
389,600	24,143
389,700	24,146
389,800	24,145
389,900	24,146
390,000	24,146
390,100	24,144
390,200	24,145
390,300	24,144
390,400	24,143
390,500	24,145
390,600	24,144
390,700	24,143
390,800	24,143
390,900	24,144
391,000	24,143
391,100	24,142
391,200	24,143
391,300	24,142
391,400	24,144
391,500	24,143
391,600	24,141
391,700	24,143
391,800	24,142
391,900	24,142
392,000	24,141
392,100	24,142
392,200	24,143
392,300	24,142
392,400	24,141
392,500	24,139
392,600	24,141
392,700	24,141
392,800	24,142
392,900	24,142
393,000	24,144
393,100	24,140
393,200	24,141
393,300	24,139
393,400	24,141
393,500	24,139
393,600	24,140
393,700	24,141
393,800	24,138
393,900	24,139
394,000	24,141
394,100	24,138
394,200	24,140
394,300	24,139
394,400	24,139
394,500	24,141
394,600	24,138
394,700	24,140
394,800	24,137
394,900	24,136
395,000	24,137
395,100	24,137
395,200	24,137
395,300	24,138
395,400	24,137
395,500	24,136
395,600	24,137
395,700	24,138
395,800	24,137
395,900	24,137
396,000	24,135
396,100	24,138
396,200	24,134
396,300	24,134
396,400	24,137
396,500	24,134
396,600	24,137
396,700	24,135
396,800	24,134
396,900	24,135
397,000	24,135
397,100	24,134
397,200	24,136
397,300	24,136
397,400	24,135
397,500	24,134
397,600	24,134
397,700	24,135
397,800	24,134
397,900	24,135
398,000	24,134
398,100	24,134
398,200	24,134
398,300	24,134
398,400	24,133
398,500	24,135
398,600	24,133
398,700	24,134
398,800	24,133
398,900	24,133
399,000	24,131
399,100	24,134
399,200	24,134
399,300	24,132
399,400	24,132
399,500	24,133
399,600	24,132
399,700	24,133
399,800	24,132
399,900	24,132
400,000	24,131
400,100	24,131
400,200	24,130
400,300	24,131
400,400	24,131
400,500	24,130
400,600	24,129
400,700	24,133
400,800	24,127
400,900	24,132
401,000	24,128
401,100	24,130
401,200	24,128
401,300	24,131
401,400	24,129
401,500	24,129
401,600	24,132
401,700	24,130
401,800	24,129
401,900	24,130
402,000	24,128
402,100	24,130
402,200	24,128
402,300	24,125
402,400	24,128
402,500	24,127
402,600	24,128
402,700	24,127
402,800	24,126
402,900	24,128
403,000	24,127
403,100	24,124
403,200	24,127
403,300	24,126
403,400	24,125
403,500	24,127
403,600	24,127
403,700	24,127
403,800	24,126
403,900	24,126
404,000	24,126
404,100	24,125
404,200	24,127
404,300	24,125
404,400	24,125
404,500	24,125
404,600	24,126
404,700	24,125
404,800	24,124
404,900	24,123
405,000	24,125
405,100	24,122
405,200	24,125
405,300	24,124
405,400	24,124
405,500	24,124
405,600	24,123
405,700	24,122
405,800	24,122
405,900	24,124
406,000	24,125
406,100	24,124
406,200	24,126
406,300	24,121
406,400	24,123
406,500	24,122
406,600	24,121
406,700	24,121
406,800	24,122
406,900	24,122
407,000	24,121
407,100	24,121
407,200	24,122
407,300	24,120
407,400	24,120
407,500	24,121
407,600	24,122
407,700	24,121
407,800	24,120
407,900	24,121
408,000	24,122
408,100	24,119
408,200	24,120
408,300	24,119
408,400	24,120
408,500	24,120
408,600	24,118
408,700	24,121
408,800	24,121
408,900	24,121
409,000	24,119
409,100	24,119
409,200	24,119
409,300	24,118
409,400	24,120
409,500	24,119
409,600	24,116
409,700	24,119
409,800	24,117
409,900	24,117
410,000	24,117
410,100	24,118
410,200	24,117
410,300	24,117
410,400	24,117
410,500	24,117
410,600	24,120
410,700	24,115
410,800	24,116
410,900	24,116
411,000	24,115
411,100	24,115
411,200	24,115
411,300	24,115
411,400	24,116
411,500	24,115
411,600	24,116
411,700	24,113
411,800	24,115
411,900	24,116
412,000	24,115
412,100	24,113
412,200	24,114
412,300	24,112
412,400	24,115
412,500	24,114
412,600	24,113
412,700	24,113
412,800	24,114
412,900	24,116
413,000	24,113
413,100	24,111
413,200	24,113
413,300	24,113
413,400	24,113
413,500	24,112
413,600	24,113
413,700	24,113
413,800	24,114
413,900	24,111
414,000	24,112
414,100	24,109
414,200	24,112
414,300	24,110
414,400	24,111
414,500	24,111
414,600	24,110
414,700	24,111
414,800	24,111
414,900	24,109
415,000	24,110
415,100	24,111
415,200	24,112
415,300	24,111
415,400	24,111
415,500	24,109
415,600	24,109
415,700	24,109
415,800	24,111
415,900	24,111
416,000	24,109
416,100	24,108
416,200	24,110
416,300	24,108
416,400	24,109
416,500	24,109
416,600	24,108
416,700	24,109
416,800	24,109
416,900	24,107
417,000	24,108
417,100	24,106
417,200	24,108
417,300	24,108
417,400	24,108
417,500	24,107
417,600	24,107
417,700	24,108
417,800	24,108
417,900	24,109
418,000	24,108
418,100	24,105
418,200	24,107
418,300	24,106
418,400	24,103
418,500	24,105
418,600	24,105
418,700	24,107
418,800	24,106
418,900	24,105
419,000	24,105
419,100	24,106
419,200	24,105
419,300	24,106
419,400	24,103
419,500	24,104
419,600	24,104
419,700	24,105
419,800	24,103
419,900	24,102
420,000	24,103
420,100	24,102
420,200	24,104
420,300	24,102
420,400	24,104
420,500	24,100
420,600	24,104
420,700	24,100
420,800	24,103
420,900	24,100
421,000	24,102
421,100	24,101
421,200	24,101
421,300	24,103
421,400	24,101
421,500	24,102
421,600	24,102
421,700	24,100
421,800	24,104
421,900	24,100
422,000	24,101
422,100	24,100
422,200	24,100
422,300	24,100
422,400	24,101
422,500	24,100
422,600	24,099
422,700	24,100
422,800	24,100
422,900	24,098
423,000	24,099
423,100	24,099
423,200	24,100
423,300	24,098
423,400	24,099
423,500	24,100
423,600	24,099
423,700	24,098
423,800	24,099
423,900	24,098
424,000	24,094
424,100	24,098
424,200	24,098
424,300	24,097
424,400	24,096
424,500	24,097
424,600	24,095
424,700	24,097
424,800	24,095
424,900	24,097
425,000	24,095
425,100	24,097
425,200	24,097
425,300	24,095
425,400	24,095
425,500	24,095
425,600	24,096
425,700	24,097
425,800	24,092
425,900	24,095
426,000	24,095
426,100	24,094
426,200	24,093
426,300	24,097
426,400	24,091
426,500	24,093
426,600	24,092
426,700	24,094
426,800	24,092
426,900	24,094
427,000	24,095
427,100	24,092
427,200	24,095
427,300	24,094
427,400	24,094
427,500	24,094
427,600	24,094
427,700	24,090
427,800	24,096
427,900	24,092
428,000	24,092
428,100	24,092
428,200	24,090
428,300	24,092
428,400	24,091
428,500	24,092
428,600	24,089
428,700	24,091
428,800	24,089
428,900	24,093
429,000	24,091
429,100	24,091
429,200	24,090
429,300	24,091
429,400	24,089
429,500	24,089
429,600	24,088
429,700	24,087
429,800	24,089
429,900	24,089
430,000	24,088
430,100	24,088
430,200	24,088
430,300	24,090
430,400	24,089
430,500	24,089
430,600	24,089
430,700	24,087
430,800	24,087
430,900	24,086
431,000	24,087
431,100	24,086
431,200	24,086
431,300	24,087
431,400	24,084
431,500	24,085
431,600	24,086
431,700	24,086
431,800	24,084
431,900	24,086
432,000	24,087
432,100	24,085
432,200	24,086
432,300	24,087
432,400	24,085
432,500	24,084
432,600	24,084
432,700	24,083
432,800	24,083
432,900	24,084
433,000	24,084
433,100	24,084
433,200	24,083
433,300	24,084
433,400	24,083
433,500	24,084
433,600	24,082
433,700	24,083
433,800	24,083
433,900	24,085
434,000	24,082
434,100	24,082
434,200	24,084
434,300	24,081
434,400	24,083
434,500	24,081
434,600	24,082
434,700	24,081
434,800	24,082
434,900	24,082
435,000	24,080
435,100	24,082
435,200	24,078
435,300	24,081
435,400	24,080
435,500	24,078
435,600	24,078
435,700	24,082
435,800	24,081
435,900	24,079
436,000	24,079
436,100	24,079
436,200	24,078
436,300	24,082
436,400	24,079
436,500	24,077
436,600	24,081
436,700	24,079
436,800	24,078
436,900	24,079
437,000	24,079
437,100	24,078
437,200	24,076
437,300	24,077
437,400	24,075
437,500	24,078
437,600	24,076
437,700	24,076
437,800	24,075
437,900	24,076
438,000	24,076
438,100	24,077
438,200	24,077
438,300	24,075
438,400	24,074
438,500	24,073
438,600	24,075
438,700	24,074
438,800	24,075
438,900	24,073
439,000	24,074
439,100	24,074
439,200	24,074
439,300	24,074
439,400	24,076
439,500	24,072
439,600	24,075
439,700	24,074
439,800	24,073
439,900	24,073
440,000	24,074
440,100	24,075
440,200	24,073
440,300	24,072
440,400	24,072
440,500	24,072
440,600	24,073
440,700	24,070
440,800	24,073
440,900	24,070
441,000	24,071
441,100	24,073
441,200	24,073
441,300	24,071
441,400	24,070
441,500	24,071
441,600	24,072
441,700	24,072
441,800	24,071
441,900	24,067
442,000	24,071
442,100	24,068
442,200	24,072
442,300	24,071
442,400	24,070
442,500	24,070
442,600	24,070
442,700	24,068
442,800	24,067
442,900	24,069
443,000	24,067
443,100	24,070
443,200	24,067
443,300	24,068
443,400	24,068
443,500	24,068
443,600	24,069
443,700	24,067
443,800	24,067
443,900	24,066
444,000	24,069
444,100	24,068
444,200	24,068
444,300	24,066
444,400	24,066
444,500	24,067
444,600	24,065
444,700	24,066
444,800	24,067
444,900	24,066
445,000	24,066
445,100	24,064
445,200	24,066
445,300	24,065
445,400	24,064
445,500	24,063
445,600	24,064
445,700	24,063
445,800	24,063
445,900	24,062
446,000	24,062
446,100	24,063
446,200	24,063
446,300	24,060
446,400	24,063
446,500	24,062
446,600	24,062
446,700	24,062
446,800	24,063
446,900	24,062
447,000	24,064
447,100	24,061
447,200	24,063
447,300	24,063
447,400	24,062
447,500	24,062
447,600	24,063
447,700	24,064
447,800	24,060
447,900	24,061
448,000	24,060
448,100	24,060
448,200	24,060
448,300	24,062
448,400	24,059
448,500	24,059
448,600	24,061
448,700	24,061
448,800	24,060
448,900	24,060
449,000	24,059
449,100	24,059
449,200	24,058
449,300	24,060
449,400	24,059
449,500	24,060
449,600	24,058
449,700	24,058
449,800	24,058
449,900	24,059
450,000	24,056
450,100	24,059
450,200	24,058
450,300	24,059
450,400	24,057
450,500	24,057
450,600	24,057
450,700	24,059
450,800	24,056
450,900	24,057
451,000	24,056
451,100	24,058
451,200	24,056
451,300	24,058
451,400	24,055
451,500	24,056
451,600	24,054
451,700	24,055
451,800	24,053
451,900	24,055
452,000	24,055
452,100	24,054
452,200	24,054
452,300	24,055
452,400	24,056
452,500	24,054
452,600	24,053
452,700	24,054
452,800	24,052
452,900	24,053
453,000	24,054
453,100	24,052
453,200	24,052
453,300	24,053
453,400	24,052
453,500	24,053
453,600	24,054
453,700	24,053
453,800	24,052
453,900	24,052
454,000	24,051
454,100	24,051
454,200	24,051
454,300	24,053
454,400	24,052
454,500	24,050
454,600	24,053
454,700	24,049
454,800	24,051
454,900	24,051
455,000	24,050
455,100	24,053
455,200	24,051
455,300	24,051
455,400	24,052
455,500	24,048
455,600	24,047
455,700	24,048
455,800	24,049
455,900	24,048
456,000	24,049
456,100	24,049
456,200	24,049
456,300	24,051
456,400	24,050
456,500	24,049
456,600	24,048
456,700	24,045
456,800	24,049
456,900	24,048
457,000	24,049
457,100	24,049
457,200	24,047
457,300	24,048
457,400	24,048
457,500	24,045
457,600	24,049
457,700	24,048
457,800	24,047
457,900	24,048
458,000	24,047
458,100	24,047
458,200	24,046
458,300	24,048
458,400	24,044
458,500	24,046
458,600	24,046
458,700	24,044
458,800	24,047
458,900	24,045
459,000	24,044
459,100	24,043
459,200	24,045
459,300	24,044
459,400	24,044
459,500	24,045
459,600	24,044
459,700	24,043
459,800	24,041
459,900	24,044
460,000	24,043
460,100	24,044
460,200	24,043
460,300	24,042
460,400	24,045
460,500	24,041
460,600	24,043
460,700	24,042
460,800	24,043
460,900	24,041
461,000	24,041
461,100	24,042
461,200	24,042
461,300	24,042
461,400	24,042
461,500	24,040
461,600	24,041
461,700	24,040
461,800	24,040
461,900	24,041
462,000	24,040
462,100	24,041
462,200	24,040
462,300	24,040
462,400	24,041
462,500	24,039
462,600	24,040
462,700	24,041
462,800	24,037
462,900	24,041
463,000	24,039
463,100	24,037
463,200	24,039
463,300	24,039
463,400	24,036
463,500	24,038
463,600	24,036
463,700	24,038
463,800	24,038
463,900	24,037
464,000	24,038
464,100	24,036
464,200	24,040
464,300	24,039
464,400	24,039
464,500	24,035
464,600	24,034
464,700	24,037
464,800	24,035
464,900	24,035
465,000	24,035
465,100	24,038
465,200	24,035
465,300	24,035
465,400	24,035
465,500	24,036
465,600	24,035
465,700	24,035
465,800	24,035
465,900	24,035
466,000	24,035
466,100	24,035
466,200	24,035
466,300	24,035
466,400	24,034
466,500	24,034
466,600	24,034
466,700	24,032
466,800	24,033
466,900	24,032
467,000	24,035
467,100	24,032
467,200	24,033
467,300	24,035
467,400	24,033
467,500	24,034
467,600	24,033
467,700	24,032
467,800	24,031
467,900	24,033
468,000	24,030
468,100	24,029
468,200	24,031
468,300	24,032
468,400	24,032
468,500	24,030
468,600	24,032
468,700	24,030
468,800	24,030
468,900	24,030
469,000	24,030
469,100	24,029
469,200	24,033
469,300	24,029
469,400	24,029
469,500	24,031
469,600	24,031
469,700	24,028
469,800	24,029
469,900	24,028
470,000	24,028
470,100	24,027
470,200	24,026
470,300	24,028
470,400	24,028
470,500	24,027
470,600	24,027
470,700	24,029
470,800	24,026
470,900	24,028
471,000	24,027
471,100	24,025
471,200	24,028
471,300	24,028
471,400	24,025
471,500	24,026
471,600	24,026
471,700	24,027
471,800	24,026
471,900	24,025
472,000	24,026
472,100	24,024
472,200	24,024
472,300	24,024
472,400	24,026
472,500	24,026
472,600	24,025
472,700	24,023
472,800	24,023
472,900	24,026
473,000	24,025
473,100	24,025
473,200	24,024
473,300	24,023
473,400	24,022
473,500	24,025
473,600	24,023
473,700	24,023
473,800	24,023
473,900	24,023
474,000	24,023
474,100	24,023
474,200	24,022
474,300	24,024
474,400	24,019
474,500	24,021
474,600	24,021
474,700	24,023
474,800	24,020
474,900	24,022
475,000	24,020
475,100	24,022
475,200	24,021
475,300	24,021
475,400	24,021
475,500	24,021
475,600	24,021
475,700	24,022
475,800	24,020
475,900	24,022
476,000	24,022
476,100	24,019
476,200	24,021
476,300	24,019
476,400	24,017
476,500	24,019
476,600	24,021
476,700	24,019
476,800	24,017
476,900	24,017
477,000	24,019
477,100	24,019
477,200	24,016
477,300	24,020
477,400	24,016
477,500	24,017
477,600	24,017
477,700	24,017
477,800	24,019
477,900	24,015
478,000	24,015
478,100	24,018
478,200	24,017
478,300	24,017
478,400	24,017
478,500	24,018
478,600	24,016
478,700	24,015
478,800	24,016
478,900	24,018
479,000	24,016
479,100	24,013
479,200	24,018
479,300	24,015
479,400	24,015
479,500	24,015
479,600	24,015
479,700	24,017
479,800	24,014
479,900	24,016
480,000	24,012
480,100	24,016
480,200	24,014
480,300	24,013
480,400	24,013
480,500	24,014
480,600	24,013
480,700	24,013
480,800	24,014
480,900	24,015
481,000	24,013
481,100	24,013
481,200	24,012
481,300	24,014
481,400	24,013
481,500	24,011
481,600	24,013
481,700	24,012
481,800	24,013
481,900	24,011
482,000	24,011
482,100	24,010
482,200	24,010
482,300	24,011
482,400	24,010
482,500	24,009
482,600	24,012
482,700	24,010
482,800	24,010
482,900	24,010
483,000	24,008
483,100	24,009
483,200	24,012
483,300	24,010
483,400	24,008
483,500	24,010
483,600	24,009
483,700	24,008
483,800	24,007
483,900	24,010
484,000	24,010
484,100	24,009
484,200	24,008
484,300	24,009
484,400	24,008
484,500	24,007
484,600	24,006
484,700	24,009
484,800	24,008
484,900	24,009
485,000	24,007
485,100	24,009
485,200	24,007
485,300	24,004
485,400	24,006
485,500	24,006
485,600	24,008
485,700	24,007
485,800	24,006
485,900	24,005
486,000	24,004
486,100	24,005
486,200	24,005
486,300	24,003
486,400	24,005
486,500	24,004
486,600	24,003
486,700	24,003
486,800	24,006
486,900	24,002
487,000	24,003
487,100	24,004
487,200	24,004
487,300	24,003
487,400	24,005
487,500	24,003
487,600	24,004
487,700	24,003
487,800	24,002
487,900	24,002
488,000	24,005
488,100	24,003
488,200	24,003
488,300	24,001
488,400	24,002
488,500	24,002
488,600	24,003
488,700	24,002
488,800	24,001
488,900	24,001
489,000	24,002
489,100	24,002
489,200	24,001
489,300	24,001
489,400	24,000
489,500	24,002
489,600	24,000
489,700	24,001
489,800	24,001
489,900	23,999
490,000	24,001
490,100	23,999
490,200	24,000
490,300	24,000
490,400	23,998
490,500	23,998
490,600	23,999
490,700	23,999
490,800	24,000
490,900	23,998
491,000	23,998
491,100	23,998
491,200	23,998
491,300	23,996
491,400	23,999
491,500	23,996
491,600	23,997
491,700	23,998
491,800	23,999
491,900	23,996
492,000	23,997
492,100	23,994
492,200	23,996
492,300	23,998
492,400	23,996
492,500	23,995
492,600	23,995
492,700	23,995
492,800	23,996
492,900	23,995
493,000	23,996
493,100	23,995
493,200	23,994
493,300	23,994
493,400	23,994
493,500	23,994
493,600	23,992
493,700	23,995
493,800	23,995
493,900	23,992
494,000	23,992
494,100	23,992
494,200	23,993
494,300	23,994
494,400	23,992
494,500	23,993
494,600	23,993
494,700	23,990
494,800	23,991
494,900	23,991
495,000	23,991
495,100	23,991
495,200	23,992
495,300	23,991
495,400	23,990
495,500	23,993
495,600	23,990
495,700	23,990
495,800	23,990
495,900	23,991
496,000	23,991
496,100	23,994
496,200	23,991
496,300	23,990
496,400	23,991
496,500	23,990
496,600	23,990
496,700	23,990
496,800	23,989
496,900	23,989
497,000	23,990
497,100	23,989
497,200	23,990
497,300	23,987
497,400	23,989
497,500	23,988
497,600	23,988
497,700	23,988
497,800	23,989
497,900	23,989
498,000	23,989
498,100	23,988
498,200	23,989
498,300	23,987
498,400	23,987
498,500	23,986
498,600	23,987
498,700	23,984
498,800	23,987
498,900	23,984
499,000	23,988
499,100	23,987
499,200	23,988
499,300	23,987
499,400	23,986
499,500	23,984
499,600	23,986
499,700	23,986
499,800	23,985
499,900	23,985
500,000	23,984
500,100	23,985
500,200	23,984
500,300	23,985
500,400	23,986
500,500	23,984
500,600	23,982
500,700	23,983
500,800	23,982
500,900	23,984
501,000	23,983
501,100	23,983
501,200	23,982
501,300	23,982
501,400	23,983
501,500	23,982
501,600	23,980
501,700	23,983
501,800	23,982
501,900	23,982
502,000	23,981
502,100	23,982
502,200	23,980
502,300	23,979
502,400	23,980
502,500	23,981
502,600	23,982
502,700	23,980
502,800	23,980
502,900	23,981
503,000	23,980
503,100	23,979
503,200	23,981
503,300	23,980
503,400	23,980
503,500	23,980
503,600	23,979
503,700	23,978
503,800	23,980
503,900	23,979
504,000	23,977
504,100	23,979
504,200	23,976
504,300	23,977
504,400	23,977
504,500	23,978
504,600	23,976
504,700	23,976
504,800	23,977
504,900	23,977
505,000	23,976
505,100	23,975
505,200	23,978
505,300	23,975
505,400	23,976
505,500	23,976
505,600	23,976
505,700	23,976
505,800	23,976
505,900	23,975
506,000	23,975
506,100	23,974
506,200	23,972
506,300	23,974
506,400	23,976
506,500	23,973
506,600	23,976
506,700	23,975
506,800	23,973
506,900	23,973
507,000	23,974
507,100	23,974
507,200	23,974
507,300	23,974
507,400	23,972
507,500	23,972
507,600	23,974
507,700	23,972
507,800	23,974
507,900	23,973
508,000	23,973
508,100	23,972
508,200	23,974
508,300	23,973
508,400	23,973
508,500	23,971
508,600	23,973
508,700	23,969
508,800	23,972
508,900	23,970
509,000	23,970
509,100	23,973
509,200	23,970
509,300	23,970
509,400	23,970
509,500	23,970
509,600	23,970
509,700	23,969
509,800	23,969
509,900	23,970
510,000	23,969
510,100	23,968
510,200	23,968
510,300	23,969
510,400	23,969
510,500	23,968
510,600	23,966
510,700	23,967
510,800	23,967
510,900	23,969
511,000	23,966
511,100	23,967
511,200	23,965
511,300	23,968
511,400	23,968
511,500	23,966
511,600	23,967
511,700	23,967
511,800	23,967
511,900	23,965
512,000	23,967
512,100	23,966
512,200	23,963
512,300	23,967
512,400	23,965
512,500	23,964
512,600	23,965
512,700	23,964
512,800	23,963
512,900	23,965
513,000	23,965
513,100	23,966
513,200	23,964
513,300	23,966
513,400	23,965
513,500	23,965
513,600	23,965
513,700	23,963
513,800	23,963
513,900	23,962
514,000	23,962
514,100	23,965
514,200	23,963
514,300	23,960
514,400	23,962
514,500	23,965
514,600	23,962
514,700	23,961
514,800	23,960
514,900	23,960
515,000	23,961
515,100	23,959
515,200	23,961
515,300	23,962
515,400	23,962
515,500	23,959
515,600	23,961
515,700	23,958
515,800	23,961
515,900	23,963
516,000	23,960
516,100	23,960
516,200	23,960
516,300	23,959
516,400	23,961
516,500	23,958
516,600	23,960
516,700	23,957
516,800	23,959
516,900	23,958
517,000	23,959
517,100	23,960
517,200	23,958
517,300	23,959
517,400	23,958
517,500	23,958
517,600	23,957
517,700	23,957
517,800	23,956
517,900	23,959
518,000	23,958
518,100	23,958
518,200	23,958
518,300	23,958
518,400	23,956
518,500	23,958
518,600	23,956
518,700	23,956
518,800	23,955
518,900	23,955
519,000	23,957
519,100	23,957
519,200	23,955
519,300	23,956
519,400	23,955
519,500	23,955
519,600	23,955
519,700	23,954
519,800	23,953
519,900	23,955
520,000	23,957
520,100	23,952
520,200	23,953
520,300	23,957
520,400	23,955
520,500	23,954
520,600	23,955
520,700	23,954
520,800	23,955
520,900	23,953
521,000	23,953
521,100	23,953
521,200	23,953
521,300	23,955
521,400	23,953
521,500	23,952
521,600	23,953
521,700	23,953
521,800	23,953
521,900	23,952
522,000	23,951
522,100	23,951
522,200	23,951
522,300	23,951
522,400	23,951
522,500	23,951
522,600	23,951
522,700	23,952
522,800	23,949
522,900	23,953
523,000	23,952
523,100	23,950
523,200	23,950
523,300	23,952
523,400	23,952
523,500	23,950
523,600	23,950
523,700	23,951
523,800	23,950
523,900	23,948
524,000	23,950
524,100	23,949
524,200	23,949
524,300	23,949
524,400	23,949
524,500	23,948
524,600	23,951
524,700	23,949
524,800	23,948
524,900	23,949
525,000	23,946
525,100	23,949
525,200	23,947
525,300	23,947
525,400	23,949
525,500	23,945
525,600	23,947
525,700	23,947
525,800	23,946
525,900	23,947
526,000	23,947
526,100	23,945
526,200	23,947
526,300	23,947
526,400	23,947
526,500	23,945
526,600	23,946
526,700	23,944
526,800	23,944
526,900	23,944
527,000	23,944
527,100	23,946
527,200	23,944
527,300	23,944
527,400	23,945
527,500	23,943
527,600	23,944
527,700	23,944
527,800	23,946
527,900	23,943
528,000	23,944
528,100	23,944
528,200	23,943
528,300	23,944
528,400	23,941
528,500	23,940
528,600	23,942
528,700	23,946
528,800	23,945
528,900	23,942
529,000	23,941
529,100	23,941
529,200	23,940
529,300	23,941
529,400	23,940
529,500	23,942
529,600	23,942
529,700	23,939
529,800	23,939
529,900	23,940
530,000	23,939
530,100	23,941
530,200	23,940
530,300	23,937
530,400	23,941
530,500	23,938
530,600	23,939
530,700	23,940
530,800	23,940
530,900	23,938
531,000	23,938
531,100	23,940
531,200	23,938
531,300	23,938
531,400	23,937
531,500	23,939
531,600	23,940
531,700	23,938
531,800	23,937
531,900	23,936
532,000	23,938
532,100	23,937
532,200	23,940
532,300	23,937
532,400	23,936
532,500	23,940
532,600	23,937
532,700	23,936
532,800	23,936
532,900	23,939
533,000	23,935
533,100	23,937
533,200	23,934
533,300	23,936
533,400	23,936
533,500	23,937
533,600	23,934
533,700	23,937
533,800	23,936
533,900	23,936
534,000	23,934
534,100	23,934
534,200	23,934
534,300	23,935
534,400	23,932
534,500	23,934
534,600	23,933
534,700	23,934
534,800	23,934
534,900	23,934
535,000	23,932
535,100	23,935
535,200	23,934
535,300	23,932
535,400	23,931
535,500	23,930
535,600	23,934
535,700	23,931
535,800	23,932
535,900	23,932
536,000	23,932
536,100	23,931
536,200	23,931
536,300	23,932
536,400	23,930
536,500	23,933
536,600	23,931
536,700	23,934
536,800	23,930
536,900	23,931
537,000	23,930
537,100	23,930
537,200	23,929
537,300	23,930
537,400	23,929
537,500	23,930
537,600	23,929
537,700	23,930
537,800	23,930
537,900	23,929
538,000	23,928
538,100	23,929
538,200	23,928
538,300	23,928
538,400	23,929
538,500	23,928
538,600	23,927
538,700	23,929
538,800	23,929
538,900	23,929
539,000	23,929
539,100	23,930
539,200	23,927
539,300	23,928
539,400	23,925
539,500	23,927
539,600	23,928
539,700	23,929
539,800	23,925
539,900	23,925
540,000	23,927
540,100	23,927
540,200	23,927
540,300	23,925
540,400	23,926
540,500	23,928
540,600	23,926
540,700	23,925
540,800	23,925
540,900	23,926
541,000	23,922
541,100	23,925
541,200	23,927
541,300	23,926
541,400	23,925
541,500	23,925
541,600	23,925
541,700	23,926
541,800	23,924
541,900	23,925
542,000	23,925
542,100	23,925
542,200	23,925
542,300	23,922
542,400	23,926
542,500	23,921
542,600	23,923
542,700	23,923
542,800	23,923
542,900	23,922
543,000	23,923
543,100	23,924
543,200	23,923
543,300	23,922
543,400	23,923
543,500	23,923
543,600	23,923
543,700	23,922
543,800	23,920
543,900	23,922
544,000	23,921
544,100	23,920
544,200	23,920
544,300	23,922
544,400	23,922
544,500	23,920
544,600	23,920
544,700	23,919
544,800	23,920
544,900	23,919
545,000	23,920
545,100	23,919
545,200	23,919
545,300	23,918
545,400	23,920
545,500	23,920
545,600	23,919
545,700	23,919
545,800	23,919
545,900	23,921
546,000	23,920
546,100	23,918
546,200	23,920
546,300	23,918
546,400	23,918
546,500	23,920
546,600	23,917
546,700	23,916
546,800	23,917
546,900	23,917
547,000	23,917
547,100	23,916
547,200	23,918
547,300	23,917
547,400	23,918
547,500	23,917
547,600	23,918
547,700	23,917
547,800	23,917
547,900	23,916
548,000	23,917
548,100	23,916
548,200	23,914
548,300	23,916
548,400	23,916
548,500	23,916
548,600	23,915
548,700	23,914
548,800	23,913
548,900	23,914
549,000	23,916
549,100	23,914
549,200	23,914
549,300	23,914
549,400	23,918
549,500	23,914
549,600	23,913
549,700	23,913
549,800	23,912
549,900	23,915
550,000	23,913
550,100	23,912
550,200	23,913
550,300	23,911
550,400	23,913
550,500	23,912
550,600	23,913
550,700	23,913
550,800	23,913
550,900	23,913
551,000	23,912
551,100	23,913
551,200	23,912
551,300	23,911
551,400	23,909
551,500	23,911
551,600	23,911
551,700	23,908
551,800	23,910
551,900	23,911
552,000	23,910
552,100	23,911
552,200	23,911
552,300	23,911
552,400	23,909
552,500	23,909
552,600	23,910
552,700	23,908
552,800	23,911
552,900	23,909
553,000	23,909
553,100	23,909
553,200	23,908
553,300	23,909
553,400	23,908
553,500	23,908
553,600	23,910
553,700	23,907
553,800	23,909
553,900	23,910
554,000	23,907
554,100	23,905
554,200	23,907
554,300	23,908
554,400	23,905
554,500	23,906
554,600	23,907
554,700	23,907
554,800	23,907
554,900	23,905
555,000	23,908
555,100	23,907
555,200	23,905
555,300	23,905
555,400	23,908
555,500	23,904
555,600	23,906
555,700	23,907
555,800	23,906
555,900	23,906
556,000	23,905
556,100	23,905
556,200	23,904
556,300	23,906
556,400	23,904
556,500	23,904
556,600	23,903
556,700	23,906
556,800	23,904
556,900	23,903
557,000	23,904
557,100	23,904
557,200	23,904
557,300	23,902
557,400	23,904
557,500	23,902
557,600	23,903
557,700	23,900
557,800	23,900
557,900	23,904
558,000	23,901
558,100	23,904
558,200	23,903
558,300	23,903
558,400	23,903
558,500	23,901
558,600	23,901
558,700	23,900
558,800	23,902
558,900	23,901
559,000	23,903
559,100	23,901
559,200	23,900
559,300	23,903
559,400	23,900
559,500	23,901
559,600	23,899
559,700	23,899
559,800	23,898
559,900	23,899
560,000	23,901
560,100	23,901
560,200	23,900
560,300	23,898
560,400	23,900
560,500	23,901
560,600	23,898
560,700	23,897
560,800	23,898
560,900	23,897
561,000	23,900
561,100	23,897
561,200	23,901
561,300	23,900
561,400	23,898
561,500	23,897
561,600	23,898
561,700	23,895
561,800	23,895
561,900	23,897
562,000	23,897
562,100	23,897
562,200	23,897
562,300	23,898
562,400	23,898
562,500	23,895
562,600	23,898
562,700	23,896
562,800	23,896
562,900	23,896
563,000	23,893
563,100	23,896
563,200	23,896
563,300	23,894
563,400	23,894
563,500	23,894
563,600	23,895
563,700	23,893
563,800	23,894
563,900	23,892
564,000	23,892
564,100	23,894
564,200	23,895
564,300	23,894
564,400	23,894
564,500	23,894
564,600	23,893
564,700	23,893
564,800	23,893
564,900	23,892
565,000	23,893
565,100	23,893
565,200	23,894
565,300	23,894
565,400	23,890
565,500	23,892
565,600	23,890
565,700	23,888
565,800	23,892
565,900	23,892
566,000	23,891
566,100	23,891
566,200	23,891
566,300	23,891
566,400	23,890
566,500	23,888
566,600	23,890
566,700	23,892
566,800	23,890
566,900	23,890
567,000	23,890
567,100	23,890
567,200	23,889
567,300	23,888
567,400	23,889
567,500	23,889
567,600	23,888
567,700	23,888
567,800	23,890
567,900	23,891
568,000	23,889
568,100	23,888
568,200	23,889
568,300	23,889
568,400	23,887
568,500	23,888
568,600	23,888
568,700	23,887
568,800	23,888
568,900	23,886
569,000	23,887
569,100	23,887
569,200	23,888
569,300	23,888
569,400	23,886
569,500	23,886
569,600	23,885
569,700	23,887
569,800	23,885
569,900	23,886
570,000	23,887
570,100	23,885
570,200	23,886
570,300	23,886
570,400	23,883
570,500	23,883
570,600	23,887
570,700	23,884
570,800	23,883
570,900	23,885
571,000	23,886
571,100	23,884
571,200	23,882
571,300	23,884
571,400	23,882
571,500	23,884
571,600	23,884
571,700	23,882
571,800	23,883
571,900	23,882
572,000	23,883
572,100	23,885
572,200	23,882
572,300	23,882
572,400	23,883
572,500	23,882
572,600	23,882
572,700	23,883
572,800	23,882
572,900	23,882
573,000	23,881
573,100	23,881
573,200	23,883
573,300	23,880
573,400	23,882
573,500	23,881
573,600	23,882
573,700	23,883
573,800	23,882
573,900	23,884
574,000	23,878
574,100	23,880
574,200	23,881
574,300	23,881
574,400	23,880
574,500	23,881
574,600	23,882
574,700	23,878
574,800	23,881
574,900	23,880
575,000	23,879
575,100	23,879
575,200	23,880
575,300	23,880
575,400	23,879
575,500	23,879
575,600	23,878
575,700	23,878
575,800	23,878
575,900	23,877
576,000	23,878
576,100	23,878
576,200	23,879
576,300	23,878
576,400	23,880
576,500	23,877
576,600	23,879
576,700	23,876
576,800	23,878
576,900	23,876
577,000	23,876
577,100	23,874
577,200	23,874
577,300	23,877
577,400	23,876
577,500	23,875
577,600	23,876
577,700	23,877
577,800	23,875
577,900	23,876
578,000	23,876
578,100	23,877
578,200	23,876
578,300	23,875
578,400	23,874
578,500	23,875
578,600	23,872
578,700	23,876
578,800	23,874
578,900	23,875
579,000	23,873
579,100	23,874
579,200	23,873
579,300	23,874
579,400	23,873
579,500	23,870
579,600	23,871
579,700	23,874
579,800	23,871
579,900	23,873
580,000	23,873
580,100	23,873
580,200	23,870
580,300	23,871
580,400	23,873
580,500	23,872
580,600	23,873
580,700	23,873
580,800	23,871
580,900	23,869
581,000	23,871
581,100	23,870
581,200	23,873
581,300	23,872
581,400	23,870
581,500	23,871
581,600	23,871
581,700	23,871
581,800	23,871
581,900	23,869
582,000	23,870
582,100	23,871
582,200	23,869
582,300	23,870
582,400	23,871
582,500	23,870
582,600	23,871
582,700	23,869
582,800	23,868
582,900	23,869
583,000	23,868
583,100	23,871
583,200	23,867
583,300	23,867
583,400	23,868
583,500	23,868
583,600	23,865
583,700	23,869
583,800	23,869
583,900	23,867
584,000	23,867
584,100	23,867
584,200	23,867
584,300	23,870
584,400	23,869
584,500	23,867
584,600	23,865
584,700	23,865
584,800	23,867
584,900	23,866
585,000	23,867
585,100	23,865
585,200	23,865
585,300	23,866
585,400	23,865
585,500	23,865
585,600	23,866
585,700	23,865
585,800	23,864
585,900	23,864
586,000	23,863
586,100	23,864
586,200	23,865
586,300	23,864
586,400	23,863
586,500	23,862
586,600	23,861
586,700	23,864
586,800	23,863
586,900	23,864
587,000	23,865
587,100	23,862
587,200	23,862
587,300	23,863
587,400	23,863
587,500	23,862
587,600	23,863
587,700	23,863
587,800	23,863
587,900	23,861
588,000	23,860
588,100	23,860
588,200	23,862
588,300	23,861
588,400	23,862
588,500	23,860
588,600	23,861
588,700	23,860
588,800	23,861
588,900	23,863
589,000	23,861
589,100	23,861
589,200	23,861
589,300	23,860
589,400	23,859
589,500	23,858
589,600	23,862
589,700	23,860
589,800	23,861
589,900	23,859
590,000	23,862
590,100	23,858
590,200	23,857
590,300	23,859
590,400	23,858
590,500	23,858
590,600	23,858
590,700	23,860
590,800	23,859
590,900	23,857
591,000	23,859
591,100	23,858
591,200	23,857
591,300	23,858
591,400	23,858
591,500	23,856
591,600	23,857
591,700	23,857
591,800	23,858
591,900	23,859
592,000	23,859
592,100	23,855
592,200	23,856
592,300	23,857
592,400	23,856
592,500	23,857
592,600	23,856
592,700	23,855
592,800	23,856
592,900	23,855
593,000	23,855
593,100	23,855
593,200	23,856
593,300	23,854
593,400	23,855
593,500	23,854
593,600	23,854
593,700	23,856
593,800	23,855
593,900	23,855
594,000	23,855
594,100	23,854
594,200	23,855
594,300	23,854
594,400	23,855
594,500	23,854
594,600	23,854
594,700	23,854
594,800	23,853
594,900	23,854
595,000	23,856
595,100	23,852
595,200	23,855
595,300	23,852
595,400	23,853
595,500	23,854
595,600	23,854
595,700	23,853
595,800	23,850
595,900	23,851
596,000	23,852
596,100	23,853
596,200	23,853
596,300	23,852
596,400	23,850
596,500	23,852
596,600	23,853
596,700	23,851
596,800	23,851
596,900	23,852
597,000	23,850
597,100	23,848
597,200	23,850
597,300	23,852
597,400	23,851
597,500	23,850
597,600	23,849
597,700	23,850
597,800	23,851
597,900	23,849
598,000	23,849
598,100	23,849
598,200	23,848
598,300	23,851
598,400	23,850
598,500	23,848
598,600	23,848
598,700	23,847
598,800	23,846
598,900	23,848
599,000	23,847
599,100	23,846
599,200	23,847
599,300	23,847
599,400	23,848
599,500	23,849
599,600	23,848
599,700	23,846
599,800	23,845
599,900	23,848
600,000	23,847
600,100	23,848
600,200	23,848
600,300	23,847
600,400	23,846
600,500	23,846
600,600	23,846
600,700	23,846
600,800	23,846
600,900	23,848
601,000	23,844
601,100	23,844
601,200	23,844
601,300	23,845
601,400	23,846
601,500	23,845
601,600	23,844
601,700	23,844
601,800	23,843
601,900	23,846
602,000	23,842
602,100	23,843
602,200	23,843
602,300	23,842
602,400	23,844
602,500	23,843
602,600	23,843
602,700	23,845
602,800	23,844
602,900	23,842
603,000	23,842
603,100	23,842
603,200	23,843
603,300	23,843
603,400	23,841
603,500	23,841
603,600	23,842
603,700	23,840
603,800	23,842
603,900	23,843
604,000	23,842
604,100	23,843
604,200	23,841
604,300	23,842
604,400	23,841
604,500	23,840
604,600	23,842
604,700	23,842
604,800	23,843
604,900	23,842
605,000	23,841
605,100	23,841
605,200	23,841
605,300	23,840
605,400	23,839
605,500	23,840
605,600	23,841
605,700	23,840
605,800	23,839
605,900	23,838
606,000	23,837
606,100	23,842
606,200	23,841
606,300	23,838
606,400	23,839
606,500	23,838
606,600	23,838
606,700	23,840
606,800	23,835
606,900	23,838
607,000	23,837
607,100	23,837
607,200	23,837
607,300	23,837
607,400	23,836
607,500	23,836
607,600	23,839
607,700	23,837
607,800	23,835
607,900	23,835
608,000	23,838
608,100	23,836
608,200	23,834
608,300	23,836
608,400	23,837
608,500	23,836
608,600	23,835
608,700	23,835
608,800	23,833
608,900	23,835
609,000	23,835
609,100	23,835
609,200	23,836
609,300	23,835
609,400	23,834
609,500	23,833
609,600	23,832
609,700	23,834
609,800	23,835
609,900	23,835
610,000	23,832
610,100	23,834
610,200	23,833
610,300	23,835
610,400	23,834
610,500	23,833
610,600	23,833
610,700	23,833
610,800	23,832
610,900	23,832
611,000	23,831
611,100	23,830
611,200	23,832
611,300	23,833
611,400	23,830
611,500	23,832
611,600	23,830
611,700	23,831
611,800	23,832
611,900	23,830
612,000	23,831
612,100	23,830
612,200	23,834
612,300	23,830
612,400	23,829
612,500	23,831
612,600	23,831
612,700	23,829
612,800	23,829
612,900	23,830
613,000	23,830
613,100	23,831
613,200	23,827
613,300	23,829
613,400	23,827
613,500	23,830
613,600	23,829
613,700	23,828
613,800	23,828
613,900	23,829
614,000	23,827
614,100	23,827
614,200	23,828
614,300	23,827
614,400	23,829
614,500	23,827
614,600	23,825
614,700	23,830
614,800	23,826
614,900	23,826
615,000	23,828
615,100	23,826
615,200	23,825
615,300	23,826
615,400	23,827
615,500	23,826
615,600	23,827
615,700	23,825
615,800	23,827
615,900	23,826
616,000	23,824
616,100	23,826
616,200	23,825
616,300	23,826
616,400	23,826
616,500	23,825
616,600	23,824
616,700	23,822
616,800	23,824
616,900	23,825
617,000	23,825
617,100	23,824
617,200	23,823
617,300	23,824
617,400	23,823
617,500	23,824
617,600	23,825
617,700	23,821
617,800	23,824
617,900	23,822
618,000	23,823
618,100	23,823
618,200	23,823
618,300	23,822
618,400	23,822
618,500	23,820
618,600	23,821
618,700	23,824
618,800	23,822
618,900	23,823
619,000	23,820
619,100	23,820
619,200	23,821
619,300	23,823
619,400	23,821
619,500	23,820
619,600	23,821
619,700	23,821
619,800	23,822
619,900	23,821
620,000	23,821
620,100	23,821
620,200	23,819
620,300	23,820
620,400	23,820
620,500	23,819
620,600	23,818
620,700	23,819
620,800	23,819
620,900	23,821
621,000	23,822
621,100	23,818
621,200	23,819
621,300	23,819
621,400	23,819
621,500	23,818
621,600	23,818
621,700	23,819
621,800	23,817
621,900	23,818
622,000	23,816
622,100	23,820
622,200	23,817
622,300	23,818
622,400	23,819
622,500	23,816
622,600	23,816
622,700	23,817
622,800	23,816
622,900	23,818
623,000	23,816
623,100	23,819
623,200	23,816
623,300	23,816
623,400	23,817
623,500	23,816
623,600	23,815
623,700	23,816
623,800	23,817
623,900	23,816
624,000	23,815
624,100	23,817
624,200	23,813
624,300	23,816
624,400	23,816
624,500	23,815
624,600	23,814
624,700	23,815
624,800	23,815
624,900	23,813
625,000	23,813
625,100	23,814
625,200	23,814
625,300	23,812
625,400	23,811
625,500	23,815
